#Acq. time (s)=	1
#Accumulations=	2
#Range=	Off
#Autofocus=	Off
#AutoExposure=	Off
#Spike filter=	Multiple accum.
#Delay time (s)=	0
#Binning=	1
#Readout mode=	Signal
#DeNoise=	Off
#ICS correction=	Off
#Dark correction=	Off
#Inst. Process=	Off
#Detector Gain=	Best Dynamic Range
#Detector ADC=	45 kHz       
#Detector temperature (°C)=	-60.1
#Instrument=	LabRAM HR Evol
#Detector=	Syncerity
#Objective=	x50Lwd
#Grating=	1800 gr/mm
#Laser (nm)=	532 
#Spectro (cm-¹)=	4400
#ND Filter=	0.01%
#Hole=	100.021
#StageXY=	Marzhauser
#StageZ=	Marzhauser
#X (µm)=	0
#Y (µm)=	0
#Z (µm)=	56.6
#Full time(s)=	3
#Project=	A
#Sample=	B
#Site=	C
#Title=	G_P00_44
#Remark=	
#Date=	08.12.2021 18:24
#Acquired=	08.12.2021 18:24:23
#AxisType[0]=Intens
#AxisUnit[0]=Cnt
#AxisType[1]=Spectr
#AxisUnit[1]=1/cm
4261.72	151
4262	151
4262.27	143
4262.55	151
4262.82	133
4263.1	157
4263.37	153
4263.65	149
4263.93	149
4264.2	139
4264.48	141
4264.75	151
4265.03	133
4265.3	137
4265.58	149
4265.86	163
4266.13	151
4266.41	147
4266.68	125
4266.96	153
4267.23	141
4267.51	151
4267.78	157
4268.06	149
4268.34	149
4268.61	141
4268.89	147
4269.16	151
4269.44	151
4269.71	155
4269.99	133
4270.26	145
4270.54	137
4270.81	163
4271.09	153
4271.36	147
4271.64	145
4271.91	135
4272.19	141
4272.47	155
4272.74	153
4273.02	143
4273.29	151
4273.57	143
4273.84	139
4274.12	163
4274.39	149
4274.67	151
4274.94	145
4275.22	135
4275.49	141
4275.77	157
4276.04	151
4276.32	151
4276.59	153
4276.86	151
4277.14	141
4277.42	153
4277.69	151
4277.96	139
4278.24	143
4278.51	157
4278.79	159
4279.06	141
4279.34	155
4279.61	143
4279.89	131
4280.16	163
4280.44	151
4280.71	153
4280.99	151
4281.26	141
4281.54	147
4281.81	149
4282.08	153
4282.36	161
4282.63	149
4282.91	145
4283.18	119
4283.46	145
4283.73	149
4284.01	153
4284.28	155
4284.55	151
4284.83	153
4285.1	139
4285.38	141
4285.65	155
4285.93	155
4286.2	151
4286.47	165
4286.75	147
4287.02	157
4287.3	159
4287.57	139
4287.85	153
4288.12	157
4288.39	157
4288.67	131
4288.94	159
4289.22	149
4289.49	163
4289.76	161
4290.04	145
4290.31	141
4290.59	167
4290.86	157
4291.13	153
4291.41	157
4291.68	159
4291.95	143
4292.23	145
4292.5	157
4292.78	155
4293.05	147
4293.32	167
4293.6	139
4293.87	151
4294.15	153
4294.42	161
4294.69	151
4294.97	161
4295.24	139
4295.51	151
4295.79	161
4296.06	161
4296.33	163
4296.61	151
4296.88	149
4297.15	151
4297.43	143
4297.7	153
4297.98	165
4298.25	149
4298.52	143
4298.8	149
4299.07	161
4299.34	159
4299.62	145
4299.89	157
4300.16	163
4300.43	155
4300.71	161
4300.98	147
4301.25	169
4301.53	157
4301.8	147
4302.07	163
4302.35	157
4302.62	173
4302.89	167
4303.17	161
4303.44	157
4303.71	161
4303.99	151
4304.26	161
4304.53	163
4304.81	159
4305.08	165
4305.35	153
4305.62	167
4305.9	143
4306.17	155
4306.44	157
4306.72	147
4306.99	157
4307.26	169
4307.53	155
4307.81	155
4308.08	159
4308.35	171
4308.62	147
4308.9	157
4309.17	165
4309.44	169
4309.72	155
4309.99	151
4310.26	157
4310.53	161
4310.81	175
4311.08	159
4311.35	161
4311.62	155
4311.9	159
4312.17	165
4312.44	161
4312.71	173
4312.98	169
4313.26	173
4313.53	155
4313.8	163
4314.08	167
4314.35	161
4314.62	165
4314.89	157
4315.16	179
4315.44	161
4315.71	161
4315.98	183
4316.25	161
4316.53	163
4316.8	173
4317.07	159
4317.34	157
4317.61	173
4317.89	163
4318.16	181
4318.43	169
4318.7	169
4318.97	181
4319.25	165
4319.52	153
4319.79	173
4320.06	179
4320.33	173
4320.61	161
4320.88	181
4321.15	171
4321.42	177
4321.69	183
4321.96	167
4322.24	171
4322.51	183
4322.78	161
4323.05	179
4323.32	187
4323.6	183
4323.87	185
4324.14	179
4324.41	175
4324.68	183
4324.95	173
4325.22	179
4325.5	171
4325.77	175
4326.04	189
4326.31	179
4326.58	191
4326.85	179
4327.13	181
4327.4	195
4327.67	179
4327.94	197
4328.21	199
4328.48	185
4328.75	195
4329.02	185
4329.3	193
4329.57	181
4329.84	189
4330.11	195
4330.38	189
4330.65	183
4330.92	201
4331.19	189
4331.47	201
4331.74	199
4332.01	197
4332.28	207
4332.55	193
4332.82	203
4333.09	201
4333.36	199
4333.63	211
4333.91	197
4334.18	185
4334.45	187
4334.72	213
4334.99	201
4335.26	193
4335.53	205
4335.8	201
4336.07	213
4336.34	217
4336.61	211
4336.89	211
4337.16	229
4337.43	213
4337.7	209
4337.97	203
4338.24	209
4338.51	227
4338.78	221
4339.05	221
4339.32	207
4339.59	217
4339.86	213
4340.13	235
4340.4	237
4340.67	205
4340.94	209
4341.21	219
4341.49	223
4341.76	237
4342.03	225
4342.3	217
4342.57	211
4342.84	237
4343.11	237
4343.38	243
4343.65	229
4343.92	247
4344.19	243
4344.46	255
4344.73	255
4345	221
4345.27	251
4345.54	241
4345.81	239
4346.08	239
4346.35	253
4346.62	243
4346.89	281
4347.16	263
4347.43	251
4347.7	251
4347.97	265
4348.24	241
4348.51	253
4348.78	281
4349.05	257
4349.32	277
4349.59	277
4349.86	275
4350.13	261
4350.4	275
4350.67	279
4350.94	275
4351.21	285
4351.48	281
4351.75	291
4352.02	293
4352.29	289
4352.56	289
4352.83	299
4353.1	315
4353.37	295
4353.64	305
4353.91	319
4354.18	317
4354.45	307
4354.72	295
4354.99	293
4355.25	309
4355.52	309
4355.79	331
4356.06	335
4356.33	333
4356.6	337
4356.87	333
4357.14	321
4357.41	347
4357.68	333
4357.95	351
4358.22	335
4358.49	353
4358.76	357
4359.03	343
4359.3	371
4359.56	339
4359.83	381
4360.1	359
4360.37	373
4360.64	379
4360.91	395
4361.18	401
4361.45	409
4361.72	397
4361.99	379
4362.26	425
4362.52	395
4362.79	429
4363.06	405
4363.33	457
4363.6	427
4363.87	429
4364.14	455
4364.41	433
4364.68	433
4364.94	465
4365.21	459
4365.48	477
4365.75	485
4366.02	449
4366.29	481
4366.56	499
4366.83	525
4367.09	509
4367.36	521
4367.63	529
4367.9	537
4368.17	509
4368.44	547
4368.71	599
4368.98	581
4369.24	573
4369.51	599
4369.78	591
4370.05	609
4370.32	573
4370.59	621
4370.86	641
4371.12	655
4371.39	653
4371.66	635
4371.93	685
4372.2	735
4372.47	731
4372.73	737
4373	723
4373.27	735
4373.54	785
4373.81	813
4374.07	813
4374.34	807
4374.61	853
4374.88	883
4375.15	869
4375.42	877
4375.68	915
4375.95	963
4376.22	969
4376.49	1029
4376.76	1053
4377.02	1067
4377.29	1079
4377.56	1087
4377.83	1207
4378.1	1207
4378.36	1221
4378.63	1203
4378.9	1329
4379.17	1423
4379.44	1431
4379.7	1441
4379.97	1419
4380.24	1553
4380.51	1655
4380.77	1685
4381.04	1745
4381.31	1773
4381.58	1829
4381.85	1979
4382.11	2013
4382.38	2119
4382.65	2193
4382.92	2289
4383.18	2369
4383.45	2539
4383.72	2553
4383.99	2681
4384.25	2771
4384.52	2947
4384.79	3193
4385.06	3237
4385.32	3337
4385.59	3389
4385.86	3691
4386.13	3929
4386.39	4013
4386.66	4087
4386.93	4225
4387.19	4563
4387.46	4897
4387.73	4951
4388	4971
4388.26	5269
4388.53	5517
4388.8	5781
4389.07	5959
4389.33	6147
4389.6	6331
4389.87	6557
4390.13	6643
4390.4	6953
4390.67	7229
4390.94	7337
4391.2	7255
4391.47	7681
4391.74	7907
4392	8059
4392.27	7923
4392.54	7841
4392.8	8215
4393.07	8443
4393.34	8301
4393.6	8293
4393.87	8307
4394.14	8291
4394.41	8501
4394.67	8223
4394.94	8371
4395.21	8135
4395.47	8017
4395.74	7943
4396.01	7991
4396.27	7783
4396.54	7577
4396.81	7259
4397.07	7179
4397.34	7221
4397.61	7231
4397.87	6823
4398.14	6617
4398.41	6467
4398.67	6517
4398.94	6387
4399.2	5999
4399.47	5929
4399.74	5725
4400	5729
4400.27	5581
4400.54	5359
4400.8	5257
4401.07	5137
4401.34	5017
4401.6	4917
4401.87	4803
4402.14	4707
4402.4	4559
4402.67	4525
4402.93	4537
4403.2	4409
4403.47	4375
4403.73	4151
4404	4143
4404.26	4129
4404.53	4147
4404.8	4095
4405.06	3879
4405.33	3855
4405.59	3979
4405.86	4005
4406.13	3817
4406.39	3823
4406.66	3839
4406.93	3907
4407.19	3889
4407.46	3829
4407.72	3887
4407.99	3887
4408.25	3887
4408.52	3935
4408.79	3929
4409.05	3977
4409.32	3973
4409.58	3961
4409.85	4207
4410.11	4321
4410.38	4225
4410.65	4251
4410.91	4417
4411.18	4493
4411.44	4627
4411.71	4609
4411.97	4647
4412.24	4797
4412.51	5047
4412.77	5191
4413.04	5255
4413.3	5291
4413.57	5495
4413.83	5737
4414.1	5787
4414.36	5987
4414.63	6161
4414.9	6375
4415.16	6503
4415.43	6773
4415.69	7087
4415.96	7203
4416.22	7267
4416.49	7613
4416.75	8063
4417.02	8335
4417.28	8425
4417.55	8461
4417.81	8819
4418.08	9371
4418.34	9601
4418.61	9625
4418.87	9797
4419.14	10007
4419.4	10565
4419.67	10849
4419.93	10859
4420.2	11115
4420.46	11345
4420.73	11659
4420.99	11673
4421.26	12023
4421.52	12181
4421.79	12177
4422.05	12141
4422.32	12487
4422.58	12609
4422.85	12691
4423.11	12511
4423.38	12311
4423.64	12805
4423.91	12847
4424.17	12615
4424.44	12239
4424.7	12317
4424.97	12499
4425.23	12387
4425.5	12109
4425.76	11595
4426.02	11629
4426.29	11673
4426.55	11327
4426.82	11013
4427.08	10911
4427.35	10771
4427.61	10409
4427.88	10303
4428.14	10081
4428.41	9901
4428.67	9343
4428.94	9087
4429.2	9063
4429.46	9051
4429.73	8745
4429.99	8235
4430.26	7993
4430.52	7943
4430.79	7817
4431.05	7579
4431.31	7155
4431.58	6891
4431.84	6911
4432.11	6735
4432.37	6469
4432.63	6261
4432.9	6079
4433.16	5931
4433.43	5697
4433.69	5603
4433.96	5401
4434.22	5155
4434.48	5001
4434.75	4897
4435.01	4835
4435.28	4713
4435.54	4565
4435.8	4341
4436.07	4225
4436.33	4221
4436.6	4107
4436.86	3863
4437.12	3751
4437.39	3715
4437.65	3707
4437.92	3617
4438.18	3397
4438.44	3379
4438.71	3267
4438.97	3199
4439.23	3095
4439.5	2979
4439.76	2971
4440.02	2925
4440.29	2787
4440.55	2773
4440.82	2709
4441.08	2631
4441.34	2575
4441.61	2467
4441.87	2441
4442.13	2457
4442.4	2369
4442.66	2237
4442.92	2221
4443.19	2245
4443.45	2215
4443.71	2157
4443.98	2055
4444.24	2093
4444.5	2067
4444.77	1987
4445.03	1887
4445.29	1875
4445.56	1875
4445.82	1787
4446.08	1795
4446.35	1829
4446.61	1741
4446.87	1733
4447.14	1625
4447.4	1639
4447.66	1687
4447.93	1653
4448.19	1555
4448.45	1515
4448.72	1579
4448.98	1541
4449.24	1551
4449.5	1461
4449.77	1415
4450.03	1461
4450.29	1451
4450.56	1375
4450.82	1349
4451.08	1353
4451.34	1367
4451.61	1361
4451.87	1327
4452.13	1275
4452.4	1221
4452.66	1253
4452.92	1253
4453.18	1227
4453.45	1217
4453.71	1159
4453.97	1159
4454.23	1149
4454.5	1175
4454.76	1127
4455.02	1151
4455.29	1045
4455.55	1061
4455.81	1079
4456.07	1095
4456.34	1029
4456.6	1023
4456.86	1015
4457.12	999
4457.39	1023
4457.65	975
4457.91	973
4458.17	967
4458.44	979
4458.7	921
4458.96	925
4459.22	903
4459.48	953
4459.75	865
4460.01	893
4460.27	891
4460.53	875
4460.8	861
4461.06	825
4461.32	841
4461.58	881
4461.84	827
4462.11	811
4462.37	803
4462.63	799
4462.89	833
4463.16	785
4463.42	781
4463.68	769
4463.94	807
4464.2	781
4464.47	791
4464.73	755
4464.99	803
4465.25	717
4465.51	757
4465.77	741
4466.04	759
4466.3	731
4466.56	709
4466.82	727
4467.08	693
4467.34	737
4467.61	683
4467.87	675
4468.13	683
4468.39	689
4468.65	701
4468.92	669
4469.18	663
4469.44	657
4469.7	657
4469.96	661
4470.22	639
4470.48	655
4470.75	635
4471.01	619
4471.27	651
4471.53	599
4471.79	611
4472.05	625
4472.32	601
4472.58	605
4472.84	621
4473.1	621
4473.36	611
4473.62	595
4473.88	581
4474.14	605
4474.41	585
4474.67	567
4474.93	553
4475.19	583
4475.45	605
4475.71	571
4475.97	563
4476.23	557
4476.5	561
4476.76	549
4477.02	549
4477.28	555
4477.54	531
4477.8	569
4478.06	561
4478.32	533
4478.58	507
4478.84	539
4479.1	519
4479.37	509
4479.63	523
4479.89	513
4480.15	533
4480.41	499
4480.67	521
4480.93	517
4481.19	513
4481.45	505
4481.71	471
4481.97	501
4482.23	469
4482.5	515
4482.76	497
4483.02	485
4483.28	495
4483.54	505
4483.8	521
4484.06	479
4484.32	507
4484.58	469
4484.84	503
4485.1	497
4485.36	507
4485.62	475
4485.88	471
4486.14	475
4486.4	501
4486.66	511
4486.93	493
4487.19	477
4487.44	463
4487.71	481
4487.97	507
4488.23	475
4488.49	495
4488.75	479
4489.01	523
4489.27	501
4489.53	509
4489.79	493
4490.05	471
4490.31	485
4490.57	463
4490.83	505
4491.09	507
4491.35	507
4491.61	491
4491.87	487
4492.13	483
4492.39	511
4492.65	505
4492.91	495
4493.17	507
4493.43	525
4493.69	509
4493.95	533
4494.21	519
4494.47	525
4494.73	519
4494.99	527
4495.25	481
4495.51	499
4495.77	519
4496.03	493
4496.29	523
4496.55	515
4496.81	523
4497.07	501
4497.33	521
4497.58	489
4497.85	519
4498.1	489
4498.36	503
4498.62	497
4498.88	539
4499.14	507
4499.4	539
4499.66	521
4499.92	497
4500.18	483
4500.44	517
4500.7	507
4500.96	477
4501.22	469
4501.48	477
4501.74	487
4502	475
4502.25	477
4502.51	471
4502.77	465
4503.03	487
4503.29	483
4503.55	459
4503.81	473
4504.07	449
4504.33	469
4504.59	467
4504.85	461
4505.11	479
4505.37	455
4505.63	419
4505.88	453
4506.14	467
4506.4	449
4506.66	447
4506.92	441
4507.18	465
4507.44	461
4507.7	455
4507.96	439
4508.22	427
4508.47	445
4508.73	445
4508.99	433
4509.25	431
4509.51	441
4509.77	413
4510.03	421
4510.29	443
4510.54	413
4510.8	413
4511.06	409
4511.32	401
4511.58	415
4511.84	423
4512.1	401
4512.35	397
4512.61	395
4512.87	405
4513.13	413
4513.39	399
4513.65	377
4513.91	409
4514.16	381
4514.42	411
4514.68	379
4514.94	383
4515.2	397
4515.46	383
4515.72	389
4515.97	377
4516.23	381
4516.49	365
4516.75	397
4517.01	387
4517.26	385
4517.52	381
4517.78	387
4518.04	353
4518.3	373
4518.56	369
4518.81	383
4519.07	367
4519.33	371
4519.59	371
4519.85	369
4520.1	355
4520.36	373
4520.62	351
4520.88	375
4521.14	377
4521.39	375
4521.65	355
4521.91	347
4522.17	365
4522.43	365
4522.68	367
4522.94	363
4523.2	371
4523.46	367
4523.72	363
4523.97	387
4524.23	367
4524.49	373
4524.75	355
4525	339
4525.26	365
4525.52	381
4525.78	361
4526.03	355
4526.29	377
4526.55	359
4526.81	383
4527.07	375
4527.32	367
4527.58	349
4527.84	353
4528.1	373
4528.35	381
4528.61	369
4528.87	389
4529.13	385
4529.38	395
4529.64	385
4529.9	379
4530.15	401
4530.41	389
4530.67	405
4530.93	393
4531.18	387
4531.44	429
4531.7	373
4531.96	397
4532.21	421
4532.47	409
4532.73	441
4532.98	405
4533.24	425
4533.5	457
4533.76	467
4534.01	467
4534.27	445
