#Acq. time (s)=	1
#Accumulations=	2
#Range=	Off
#Autofocus=	Off
#AutoExposure=	Off
#Spike filter=	Multiple accum.
#Delay time (s)=	0
#Binning=	1
#Readout mode=	Signal
#DeNoise=	Off
#ICS correction=	Off
#Dark correction=	Off
#Inst. Process=	Off
#Detector Gain=	Best Dynamic Range
#Detector ADC=	45 kHz       
#Detector temperature (°C)=	-60.1
#Instrument=	LabRAM HR Evol
#Detector=	Syncerity
#Objective=	x50Lwd
#Grating=	1800 gr/mm
#Laser (nm)=	532 
#Spectro (cm-¹)=	4400
#ND Filter=	0.01%
#Hole=	100.021
#StageXY=	Marzhauser
#StageZ=	Marzhauser
#X (µm)=	0
#Y (µm)=	0
#Z (µm)=	53
#Full time(s)=	3
#Project=	A
#Sample=	B
#Site=	C
#Title=	G_P00_47
#Remark=	
#Date=	08.12.2021 09:25
#Acquired=	08.12.2021 09:25:16
#AxisType[0]=Intens
#AxisUnit[0]=Cnt
#AxisType[1]=Spectr
#AxisUnit[1]=1/cm
4261.72	65
4262	65
4262.27	73
4262.55	73
4262.82	75
4263.1	69
4263.37	63
4263.65	75
4263.93	77
4264.2	69
4264.48	75
4264.75	71
4265.03	63
4265.3	79
4265.58	85
4265.86	81
4266.13	79
4266.41	79
4266.68	71
4266.96	69
4267.23	75
4267.51	71
4267.78	75
4268.06	65
4268.34	73
4268.61	77
4268.89	73
4269.16	71
4269.44	61
4269.71	69
4269.99	79
4270.26	69
4270.54	59
4270.81	69
4271.09	79
4271.36	73
4271.64	71
4271.91	71
4272.19	71
4272.47	73
4272.74	71
4273.02	75
4273.29	73
4273.57	75
4273.84	65
4274.12	71
4274.39	61
4274.67	69
4274.94	69
4275.22	67
4275.49	67
4275.77	71
4276.04	73
4276.32	67
4276.59	71
4276.86	77
4277.14	69
4277.42	65
4277.69	71
4277.96	71
4278.24	69
4278.51	75
4278.79	75
4279.06	77
4279.34	73
4279.61	73
4279.89	71
4280.16	67
4280.44	75
4280.71	61
4280.99	73
4281.26	79
4281.54	69
4281.81	73
4282.08	73
4282.36	69
4282.63	67
4282.91	65
4283.18	75
4283.46	71
4283.73	71
4284.01	77
4284.28	81
4284.55	67
4284.83	65
4285.1	71
4285.38	71
4285.65	79
4285.93	77
4286.2	71
4286.47	75
4286.75	75
4287.02	73
4287.3	77
4287.57	69
4287.85	65
4288.12	71
4288.39	71
4288.67	67
4288.94	79
4289.22	71
4289.49	69
4289.76	73
4290.04	81
4290.31	69
4290.59	75
4290.86	69
4291.13	75
4291.41	75
4291.68	77
4291.95	75
4292.23	77
4292.5	77
4292.78	77
4293.05	81
4293.32	75
4293.6	79
4293.87	77
4294.15	69
4294.42	77
4294.69	81
4294.97	81
4295.24	73
4295.51	69
4295.79	73
4296.06	71
4296.33	79
4296.61	79
4296.88	77
4297.15	71
4297.43	71
4297.7	81
4297.98	71
4298.25	81
4298.52	81
4298.8	87
4299.07	83
4299.34	71
4299.62	83
4299.89	85
4300.16	85
4300.43	81
4300.71	63
4300.98	79
4301.25	69
4301.53	71
4301.8	77
4302.07	79
4302.35	69
4302.62	77
4302.89	81
4303.17	79
4303.44	81
4303.71	77
4303.99	89
4304.26	61
4304.53	77
4304.81	81
4305.08	73
4305.35	81
4305.62	69
4305.9	71
4306.17	79
4306.44	83
4306.72	77
4306.99	83
4307.26	85
4307.53	81
4307.81	89
4308.08	79
4308.35	79
4308.62	79
4308.9	81
4309.17	81
4309.44	77
4309.72	87
4309.99	85
4310.26	93
4310.53	89
4310.81	87
4311.08	89
4311.35	91
4311.62	75
4311.9	93
4312.17	77
4312.44	91
4312.71	97
4312.98	79
4313.26	93
4313.53	97
4313.8	89
4314.08	81
4314.35	83
4314.62	75
4314.89	89
4315.16	69
4315.44	85
4315.71	89
4315.98	87
4316.25	85
4316.53	95
4316.8	77
4317.07	85
4317.34	87
4317.61	87
4317.89	87
4318.16	79
4318.43	83
4318.7	97
4318.97	89
4319.25	89
4319.52	91
4319.79	89
4320.06	87
4320.33	91
4320.61	93
4320.88	75
4321.15	91
4321.42	93
4321.69	91
4321.96	89
4322.24	91
4322.51	87
4322.78	89
4323.05	103
4323.32	93
4323.6	93
4323.87	93
4324.14	91
4324.41	95
4324.68	97
4324.95	91
4325.22	93
4325.5	101
4325.77	91
4326.04	85
4326.31	93
4326.58	97
4326.85	97
4327.13	93
4327.4	103
4327.67	93
4327.94	105
4328.21	99
4328.48	107
4328.75	103
4329.02	115
4329.3	101
4329.57	101
4329.84	107
4330.11	107
4330.38	109
4330.65	101
4330.92	107
4331.19	109
4331.47	103
4331.74	107
4332.01	107
4332.28	103
4332.55	113
4332.82	109
4333.09	103
4333.36	119
4333.63	109
4333.91	117
4334.18	117
4334.45	111
4334.72	123
4334.99	115
4335.26	111
4335.53	121
4335.8	115
4336.07	125
4336.34	115
4336.61	123
4336.89	113
4337.16	113
4337.43	115
4337.7	119
4337.97	117
4338.24	123
4338.51	125
4338.78	127
4339.05	115
4339.32	131
4339.59	135
4339.86	133
4340.13	123
4340.4	135
4340.67	129
4340.94	139
4341.21	131
4341.49	149
4341.76	135
4342.03	133
4342.3	139
4342.57	149
4342.84	131
4343.11	153
4343.38	153
4343.65	151
4343.92	149
4344.19	165
4344.46	163
4344.73	147
4345	171
4345.27	155
4345.54	153
4345.81	157
4346.08	153
4346.35	171
4346.62	153
4346.89	175
4347.16	165
4347.43	167
4347.7	167
4347.97	181
4348.24	175
4348.51	179
4348.78	193
4349.05	169
4349.32	181
4349.59	197
4349.86	193
4350.13	199
4350.4	199
4350.67	193
4350.94	205
4351.21	211
4351.48	215
4351.75	227
4352.02	199
4352.29	203
4352.56	221
4352.83	231
4353.1	251
4353.37	225
4353.64	235
4353.91	255
4354.18	265
4354.45	231
4354.72	257
4354.99	267
4355.25	293
4355.52	279
4355.79	293
4356.06	313
4356.33	303
4356.6	321
4356.87	329
4357.14	333
4357.41	349
4357.68	355
4357.95	349
4358.22	379
4358.49	377
4358.76	403
4359.03	405
4359.3	427
4359.56	437
4359.83	441
4360.1	465
4360.37	475
4360.64	493
4360.91	531
4361.18	527
4361.45	545
4361.72	561
4361.99	593
4362.26	631
4362.52	661
4362.79	657
4363.06	695
4363.33	735
4363.6	789
4363.87	797
4364.14	843
4364.41	871
4364.68	919
4364.94	923
4365.21	1007
4365.48	1053
4365.75	1085
4366.02	1139
4366.29	1201
4366.56	1297
4366.83	1363
4367.09	1397
4367.36	1421
4367.63	1533
4367.9	1575
4368.17	1665
4368.44	1697
4368.71	1771
4368.98	1883
4369.24	1951
4369.51	1971
4369.78	2057
4370.05	2125
4370.32	2197
4370.59	2259
4370.86	2307
4371.12	2399
4371.39	2417
4371.66	2409
4371.93	2423
4372.2	2485
4372.47	2583
4372.73	2471
4373	2457
4373.27	2531
4373.54	2509
4373.81	2555
4374.07	2439
4374.34	2421
4374.61	2449
4374.88	2379
4375.15	2239
4375.42	2171
4375.68	2163
4375.95	2101
4376.22	2053
4376.49	2001
4376.76	1999
4377.02	1933
4377.29	1783
4377.56	1761
4377.83	1729
4378.1	1741
4378.36	1597
4378.63	1487
4378.9	1495
4379.17	1473
4379.44	1467
4379.7	1333
4379.97	1289
4380.24	1327
4380.51	1319
4380.77	1217
4381.04	1223
4381.31	1185
4381.58	1183
4381.85	1121
4382.11	1121
4382.38	1079
4382.65	1083
4382.92	1031
4383.18	1031
4383.45	969
4383.72	1021
4383.99	1029
4384.25	987
4384.52	1005
4384.79	1023
4385.06	1007
4385.32	977
4385.59	971
4385.86	999
4386.13	1007
4386.39	975
4386.66	987
4386.93	981
4387.19	999
4387.46	993
4387.73	1011
4388	1033
4388.26	1007
4388.53	1059
4388.8	1059
4389.07	1071
4389.33	1107
4389.6	1149
4389.87	1117
4390.13	1125
4390.4	1165
4390.67	1223
4390.94	1187
4391.2	1149
4391.47	1233
4391.74	1323
4392	1345
4392.27	1337
4392.54	1371
4392.8	1413
4393.07	1481
4393.34	1513
4393.6	1507
4393.87	1615
4394.14	1645
4394.41	1731
4394.67	1761
4394.94	1833
4395.21	1899
4395.47	1933
4395.74	1993
4396.01	2111
4396.27	2225
4396.54	2201
4396.81	2243
4397.07	2347
4397.34	2437
4397.61	2585
4397.87	2629
4398.14	2663
4398.41	2791
4398.67	2847
4398.94	2959
4399.2	3003
4399.47	3059
4399.74	3207
4400	3297
4400.27	3273
4400.54	3373
4400.8	3405
4401.07	3441
4401.34	3427
4401.6	3515
4401.87	3557
4402.14	3517
4402.4	3445
4402.67	3535
4402.93	3593
4403.2	3679
4403.47	3507
4403.73	3477
4404	3511
4404.26	3425
4404.53	3443
4404.8	3335
4405.06	3207
4405.33	3193
4405.59	3221
4405.86	3061
4406.13	2969
4406.39	2927
4406.66	2917
4406.93	2785
4407.19	2635
4407.46	2615
4407.72	2567
4407.99	2459
4408.25	2337
4408.52	2291
4408.79	2265
4409.05	2147
4409.32	2079
4409.58	1983
4409.85	1899
4410.11	1933
4410.38	1847
4410.65	1685
4410.91	1675
4411.18	1685
4411.44	1587
4411.71	1563
4411.97	1455
4412.24	1459
4412.51	1409
4412.77	1375
4413.04	1281
4413.3	1265
4413.57	1241
4413.83	1177
4414.1	1159
4414.36	1111
4414.63	1073
4414.9	1053
4415.16	989
4415.43	965
4415.69	1009
4415.96	915
4416.22	913
4416.49	861
4416.75	869
4417.02	825
4417.28	817
4417.55	781
4417.81	795
4418.08	759
4418.34	751
4418.61	721
4418.87	677
4419.14	691
4419.4	669
4419.67	669
4419.93	625
4420.2	625
4420.46	611
4420.73	611
4420.99	585
4421.26	589
4421.52	567
4421.79	545
4422.05	521
4422.32	513
4422.58	529
4422.85	515
4423.11	487
4423.38	471
4423.64	499
4423.91	503
4424.17	445
4424.44	467
4424.7	467
4424.97	429
4425.23	451
4425.5	427
4425.76	421
4426.02	413
4426.29	417
4426.55	429
4426.82	415
4427.08	427
4427.35	409
4427.61	397
4427.88	387
4428.14	391
4428.41	389
4428.67	369
4428.94	363
4429.2	363
4429.46	375
4429.73	365
4429.99	369
4430.26	345
4430.52	349
4430.79	339
4431.05	331
4431.31	335
4431.58	353
4431.84	329
4432.11	323
4432.37	311
4432.63	325
4432.9	311
4433.16	319
4433.43	283
4433.69	293
4433.96	305
4434.22	293
4434.48	277
4434.75	289
4435.01	281
4435.28	299
4435.54	283
4435.8	273
4436.07	269
4436.33	277
4436.6	267
4436.86	261
4437.12	259
4437.39	255
4437.65	221
4437.92	235
4438.18	239
4438.44	249
4438.71	223
4438.97	243
4439.23	229
4439.5	237
4439.76	231
4440.02	227
4440.29	239
4440.55	221
4440.82	231
4441.08	219
4441.34	223
4441.61	213
4441.87	215
4442.13	239
4442.4	227
4442.66	213
4442.92	187
4443.19	223
4443.45	225
4443.71	213
4443.98	219
4444.24	217
4444.5	239
4444.77	207
4445.03	201
4445.29	203
4445.56	205
4445.82	193
4446.08	207
4446.35	201
4446.61	215
4446.87	195
4447.14	193
4447.4	201
4447.66	203
4447.93	197
4448.19	195
4448.45	191
4448.72	193
4448.98	193
4449.24	183
4449.5	185
4449.77	185
4450.03	179
4450.29	203
4450.56	191
4450.82	175
4451.08	173
4451.34	161
4451.61	179
4451.87	183
4452.13	159
4452.4	163
4452.66	179
4452.92	157
4453.18	177
4453.45	175
4453.71	169
4453.97	173
4454.23	161
4454.5	185
4454.76	171
4455.02	157
4455.29	147
4455.55	167
4455.81	163
4456.07	163
4456.34	167
4456.6	151
4456.86	165
4457.12	159
4457.39	159
4457.65	153
4457.91	165
4458.17	157
4458.44	177
4458.7	165
4458.96	153
4459.22	153
4459.48	161
4459.75	155
4460.01	145
4460.27	151
4460.53	155
4460.8	149
4461.06	165
4461.32	171
4461.58	147
4461.84	163
4462.11	143
4462.37	159
4462.63	171
4462.89	167
4463.16	147
4463.42	141
4463.68	157
4463.94	153
4464.2	153
4464.47	151
4464.73	147
4464.99	151
4465.25	161
4465.51	147
4465.77	145
4466.04	161
4466.3	161
4466.56	155
4466.82	149
4467.08	159
4467.34	157
4467.61	153
4467.87	163
4468.13	165
4468.39	159
4468.65	155
4468.92	149
4469.18	149
4469.44	155
4469.7	165
4469.96	149
4470.22	155
4470.48	165
4470.75	151
4471.01	161
4471.27	161
4471.53	165
4471.79	163
4472.05	177
4472.32	177
4472.58	149
4472.84	169
4473.1	163
4473.36	165
4473.62	171
4473.88	175
4474.14	167
4474.41	175
4474.67	167
4474.93	161
4475.19	171
4475.45	171
4475.71	169
4475.97	161
4476.23	169
4476.5	165
4476.76	171
4477.02	175
4477.28	173
4477.54	171
4477.8	161
4478.06	171
4478.32	165
4478.58	163
4478.84	163
4479.1	161
4479.37	155
4479.63	161
4479.89	149
4480.15	149
4480.41	149
4480.67	157
4480.93	157
4481.19	149
4481.45	157
4481.71	147
4481.97	153
4482.23	143
4482.5	147
4482.76	147
4483.02	147
4483.28	145
4483.54	157
4483.8	137
4484.06	147
4484.32	141
4484.58	139
4484.84	141
4485.1	149
4485.36	143
4485.62	137
4485.88	147
4486.14	139
4486.4	157
4486.66	145
4486.93	155
4487.19	129
4487.44	147
4487.71	141
4487.97	151
4488.23	139
4488.49	141
4488.75	139
4489.01	135
4489.27	147
4489.53	145
4489.79	143
4490.05	137
4490.31	151
4490.57	139
4490.83	143
4491.09	143
4491.35	135
4491.61	137
4491.87	135
4492.13	135
4492.39	147
4492.65	127
4492.91	135
4493.17	145
4493.43	149
4493.69	139
4493.95	133
4494.21	137
4494.47	143
4494.73	133
4494.99	129
4495.25	127
4495.51	123
4495.77	133
4496.03	141
4496.29	127
4496.55	127
4496.81	127
4497.07	135
4497.33	127
4497.58	121
4497.85	131
4498.1	125
4498.36	121
4498.62	133
4498.88	119
4499.14	123
4499.4	139
4499.66	127
4499.92	123
4500.18	137
4500.44	129
4500.7	127
4500.96	119
4501.22	111
4501.48	113
4501.74	127
4502	135
4502.25	137
4502.51	123
4502.77	123
4503.03	131
4503.29	115
4503.55	115
4503.81	123
4504.07	117
4504.33	125
4504.59	135
4504.85	127
4505.11	131
4505.37	123
4505.63	123
4505.88	135
4506.14	129
4506.4	129
4506.66	141
4506.92	133
4507.18	153
4507.44	123
4507.7	133
4507.96	141
4508.22	143
4508.47	147
4508.73	143
4508.99	129
4509.25	151
4509.51	149
4509.77	151
4510.03	143
4510.29	163
4510.54	165
4510.8	157
4511.06	155
4511.32	145
4511.58	173
4511.84	165
4512.1	169
4512.35	157
4512.61	167
4512.87	173
4513.13	171
4513.39	183
4513.65	171
4513.91	175
4514.16	169
4514.42	173
4514.68	185
4514.94	169
4515.2	181
4515.46	181
4515.72	179
4515.97	181
4516.23	187
4516.49	175
4516.75	183
4517.01	165
4517.26	175
4517.52	173
4517.78	171
4518.04	163
4518.3	151
4518.56	163
4518.81	169
4519.07	173
4519.33	159
4519.59	167
4519.85	163
4520.1	155
4520.36	155
4520.62	145
4520.88	149
4521.14	147
4521.39	147
4521.65	141
4521.91	159
4522.17	149
4522.43	147
4522.68	149
4522.94	151
4523.2	145
4523.46	149
4523.72	147
4523.97	147
4524.23	143
4524.49	149
4524.75	137
4525	133
4525.26	133
4525.52	149
4525.78	147
4526.03	133
4526.29	141
4526.55	147
4526.81	143
4527.07	133
4527.32	141
4527.58	135
4527.84	129
4528.1	133
4528.35	125
4528.61	125
4528.87	131
4529.13	125
4529.38	131
4529.64	123
4529.9	131
4530.15	127
4530.41	125
4530.67	127
4530.93	125
4531.18	127
4531.44	125
4531.7	129
4531.96	121
4532.21	117
4532.47	129
4532.73	133
4532.98	115
4533.24	111
4533.5	117
4533.76	119
4534.01	115
4534.27	113
