#Acq. time (s)=	1
#Accumulations=	2
#Range=	Off
#Autofocus=	Off
#AutoExposure=	Off
#Spike filter=	Multiple accum.
#Delay time (s)=	0
#Binning=	1
#Readout mode=	Signal
#DeNoise=	Off
#ICS correction=	Off
#Dark correction=	Off
#Inst. Process=	Off
#Detector Gain=	Best Dynamic Range
#Detector ADC=	45 kHz       
#Detector temperature (°C)=	-60.1
#Instrument=	LabRAM HR Evol
#Detector=	Syncerity
#Objective=	x50Lwd
#Grating=	1800 gr/mm
#Laser (nm)=	532 
#Spectro (cm-¹)=	4400
#ND Filter=	0.01%
#Hole=	100.021
#StageXY=	Marzhauser
#StageZ=	Marzhauser
#X (µm)=	0
#Y (µm)=	0
#Z (µm)=	95.6
#Full time(s)=	3
#Project=	A
#Sample=	B
#Site=	C
#Title=	G_P00_47
#Remark=	
#Date=	10.12.2021 15:00
#Acquired=	10.12.2021 15:00:34
#AxisType[0]=Intens
#AxisUnit[0]=Cnt
#AxisType[1]=Spectr
#AxisUnit[1]=1/cm
4261.72	231
4262	231
4262.27	241
4262.55	211
4262.82	223
4263.1	237
4263.37	201
4263.65	221
4263.93	225
4264.2	203
4264.48	219
4264.75	211
4265.03	225
4265.3	227
4265.58	223
4265.86	225
4266.13	229
4266.41	237
4266.68	219
4266.96	205
4267.23	225
4267.51	223
4267.78	223
4268.06	217
4268.34	235
4268.61	225
4268.89	215
4269.16	209
4269.44	225
4269.71	221
4269.99	229
4270.26	203
4270.54	217
4270.81	211
4271.09	219
4271.36	225
4271.64	227
4271.91	221
4272.19	213
4272.47	213
4272.74	233
4273.02	215
4273.29	213
4273.57	239
4273.84	215
4274.12	215
4274.39	213
4274.67	223
4274.94	209
4275.22	223
4275.49	215
4275.77	221
4276.04	209
4276.32	213
4276.59	223
4276.86	215
4277.14	209
4277.42	219
4277.69	217
4277.96	219
4278.24	207
4278.51	213
4278.79	215
4279.06	219
4279.34	219
4279.61	231
4279.89	193
4280.16	207
4280.44	225
4280.71	219
4280.99	209
4281.26	223
4281.54	227
4281.81	211
4282.08	213
4282.36	193
4282.63	215
4282.91	225
4283.18	219
4283.46	231
4283.73	217
4284.01	201
4284.28	227
4284.55	223
4284.83	223
4285.1	233
4285.38	203
4285.65	219
4285.93	211
4286.2	217
4286.47	199
4286.75	209
4287.02	211
4287.3	221
4287.57	211
4287.85	217
4288.12	215
4288.39	207
4288.67	221
4288.94	205
4289.22	221
4289.49	215
4289.76	219
4290.04	223
4290.31	209
4290.59	217
4290.86	215
4291.13	211
4291.41	213
4291.68	219
4291.95	205
4292.23	215
4292.5	207
4292.78	211
4293.05	219
4293.32	227
4293.6	215
4293.87	209
4294.15	199
4294.42	215
4294.69	209
4294.97	217
4295.24	199
4295.51	217
4295.79	211
4296.06	231
4296.33	195
4296.61	217
4296.88	213
4297.15	215
4297.43	209
4297.7	215
4297.98	185
4298.25	217
4298.52	213
4298.8	205
4299.07	191
4299.34	211
4299.62	221
4299.89	199
4300.16	213
4300.43	201
4300.71	205
4300.98	225
4301.25	211
4301.53	219
4301.8	213
4302.07	197
4302.35	213
4302.62	217
4302.89	217
4303.17	207
4303.44	215
4303.71	215
4303.99	209
4304.26	215
4304.53	221
4304.81	205
4305.08	213
4305.35	205
4305.62	201
4305.9	217
4306.17	207
4306.44	197
4306.72	225
4306.99	195
4307.26	213
4307.53	197
4307.81	213
4308.08	205
4308.35	221
4308.62	221
4308.9	219
4309.17	197
4309.44	209
4309.72	223
4309.99	207
4310.26	207
4310.53	211
4310.81	199
4311.08	213
4311.35	217
4311.62	207
4311.9	203
4312.17	209
4312.44	207
4312.71	209
4312.98	217
4313.26	209
4313.53	197
4313.8	215
4314.08	207
4314.35	213
4314.62	215
4314.89	215
4315.16	217
4315.44	207
4315.71	199
4315.98	207
4316.25	207
4316.53	209
4316.8	195
4317.07	215
4317.34	213
4317.61	205
4317.89	217
4318.16	203
4318.43	221
4318.7	203
4318.97	215
4319.25	211
4319.52	203
4319.79	207
4320.06	215
4320.33	215
4320.61	215
4320.88	205
4321.15	203
4321.42	206
4321.69	209
4321.96	205
4322.24	209
4322.51	191
4322.78	219
4323.05	211
4323.32	221
4323.6	201
4323.87	205
4324.14	181
4324.41	207
4324.68	199
4324.95	197
4325.22	217
4325.5	211
4325.77	211
4326.04	217
4326.31	207
4326.58	207
4326.85	213
4327.13	209
4327.4	205
4327.67	217
4327.94	213
4328.21	205
4328.48	223
4328.75	195
4329.02	221
4329.3	195
4329.57	211
4329.84	205
4330.11	209
4330.38	201
4330.65	211
4330.92	203
4331.19	187
4331.47	205
4331.74	211
4332.01	211
4332.28	207
4332.55	209
4332.82	201
4333.09	209
4333.36	213
4333.63	213
4333.91	217
4334.18	207
4334.45	217
4334.72	213
4334.99	225
4335.26	213
4335.53	203
4335.8	197
4336.07	207
4336.34	205
4336.61	211
4336.89	203
4337.16	221
4337.43	211
4337.7	207
4337.97	213
4338.24	205
4338.51	215
4338.78	207
4339.05	221
4339.32	205
4339.59	197
4339.86	199
4340.13	223
4340.4	219
4340.67	211
4340.94	217
4341.21	223
4341.49	219
4341.76	215
4342.03	207
4342.3	201
4342.57	211
4342.84	213
4343.11	221
4343.38	219
4343.65	217
4343.92	225
4344.19	209
4344.46	221
4344.73	211
4345	205
4345.27	213
4345.54	209
4345.81	215
4346.08	213
4346.35	219
4346.62	213
4346.89	217
4347.16	219
4347.43	231
4347.7	231
4347.97	209
4348.24	223
4348.51	211
4348.78	215
4349.05	213
4349.32	203
4349.59	211
4349.86	229
4350.13	219
4350.4	219
4350.67	209
4350.94	219
4351.21	229
4351.48	221
4351.75	229
4352.02	217
4352.29	223
4352.56	201
4352.83	217
4353.1	217
4353.37	217
4353.64	227
4353.91	219
4354.18	231
4354.45	223
4354.72	229
4354.99	231
4355.25	229
4355.52	211
4355.79	219
4356.06	221
4356.33	225
4356.6	219
4356.87	207
4357.14	219
4357.41	233
4357.68	213
4357.95	243
4358.22	247
4358.49	221
4358.76	243
4359.03	235
4359.3	225
4359.56	227
4359.83	239
4360.1	231
4360.37	219
4360.64	233
4360.91	229
4361.18	221
4361.45	239
4361.72	211
4361.99	231
4362.26	229
4362.52	241
4362.79	227
4363.06	245
4363.33	231
4363.6	233
4363.87	257
4364.14	255
4364.41	217
4364.68	245
4364.94	233
4365.21	243
4365.48	245
4365.75	225
4366.02	221
4366.29	249
4366.56	231
4366.83	233
4367.09	253
4367.36	233
4367.63	237
4367.9	241
4368.17	249
4368.44	237
4368.71	247
4368.98	243
4369.24	239
4369.51	241
4369.78	253
4370.05	247
4370.32	227
4370.59	251
4370.86	229
4371.12	253
4371.39	257
4371.66	247
4371.93	243
4372.2	241
4372.47	265
4372.73	259
4373	263
4373.27	259
4373.54	257
4373.81	251
4374.07	255
4374.34	239
4374.61	275
4374.88	251
4375.15	271
4375.42	269
4375.68	263
4375.95	257
4376.22	255
4376.49	267
4376.76	269
4377.02	255
4377.29	251
4377.56	271
4377.83	263
4378.1	275
4378.36	263
4378.63	287
4378.9	285
4379.17	255
4379.44	285
4379.7	281
4379.97	289
4380.24	297
4380.51	293
4380.77	273
4381.04	287
4381.31	289
4381.58	289
4381.85	305
4382.11	303
4382.38	293
4382.65	293
4382.92	293
4383.18	295
4383.45	295
4383.72	315
4383.99	297
4384.25	289
4384.52	301
4384.79	297
4385.06	303
4385.32	309
4385.59	309
4385.86	309
4386.13	311
4386.39	311
4386.66	317
4386.93	297
4387.19	305
4387.46	319
4387.73	333
4388	321
4388.26	291
4388.53	319
4388.8	347
4389.07	339
4389.33	341
4389.6	337
4389.87	317
4390.13	327
4390.4	349
4390.67	335
4390.94	335
4391.2	345
4391.47	345
4391.74	345
4392	361
4392.27	345
4392.54	343
4392.8	355
4393.07	349
4393.34	375
4393.6	363
4393.87	383
4394.14	351
4394.41	365
4394.67	363
4394.94	387
4395.21	367
4395.47	391
4395.74	381
4396.01	403
4396.27	393
4396.54	395
4396.81	381
4397.07	383
4397.34	417
4397.61	423
4397.87	387
4398.14	411
4398.41	421
4398.67	419
4398.94	415
4399.2	429
4399.47	439
4399.74	447
4400	453
4400.27	431
4400.54	439
4400.8	443
4401.07	469
4401.34	415
4401.6	443
4401.87	461
4402.14	471
4402.4	445
4402.67	465
4402.93	471
4403.2	497
4403.47	489
4403.73	489
4404	505
4404.26	529
4404.53	523
4404.8	525
4405.06	527
4405.33	525
4405.59	533
4405.86	545
4406.13	581
4406.39	585
4406.66	591
4406.93	607
4407.19	613
4407.46	617
4407.72	641
4407.99	659
4408.25	651
4408.52	673
4408.79	687
4409.05	691
4409.32	721
4409.58	713
4409.85	769
4410.11	775
4410.38	751
4410.65	761
4410.91	809
4411.18	875
4411.44	883
4411.71	847
4411.97	897
4412.24	915
4412.51	955
4412.77	959
4413.04	959
4413.3	1033
4413.57	1031
4413.83	1059
4414.1	1121
4414.36	1191
4414.63	1201
4414.9	1235
4415.16	1239
4415.43	1341
4415.69	1379
4415.96	1455
4416.22	1427
4416.49	1547
4416.75	1659
4417.02	1671
4417.28	1717
4417.55	1701
4417.81	1881
4418.08	2003
4418.34	2063
4418.61	2133
4418.87	2229
4419.14	2365
4419.4	2471
4419.67	2523
4419.93	2699
4420.2	2795
4420.46	2963
4420.73	3051
4420.99	3245
4421.26	3365
4421.52	3601
4421.79	3661
4422.05	3711
4422.32	4095
4422.58	4313
4422.85	4323
4423.11	4405
4423.38	4701
4423.64	5053
4423.91	5323
4424.17	5161
4424.44	5251
4424.7	5529
4424.97	5713
4425.23	5797
4425.5	5815
4425.76	5957
4426.02	6087
4426.29	6031
4426.55	6125
4426.82	6031
4427.08	6201
4427.35	6011
4427.61	5873
4427.88	5863
4428.14	6043
4428.41	5947
4428.67	5425
4428.94	5285
4429.2	5485
4429.46	5493
4429.73	5181
4429.99	4839
4430.26	4701
4430.52	4691
4430.79	4701
4431.05	4405
4431.31	4243
4431.58	4093
4431.84	3989
4432.11	3963
4432.37	3815
4432.63	3703
4432.9	3619
4433.16	3409
4433.43	3285
4433.69	3285
4433.96	3301
4434.22	3111
4434.48	2973
4434.75	2923
4435.01	2975
4435.28	2977
4435.54	2779
4435.8	2713
4436.07	2667
4436.33	2779
4436.6	2667
4436.86	2539
4437.12	2505
4437.39	2601
4437.65	2579
4437.92	2505
4438.18	2457
4438.44	2457
4438.71	2401
4438.97	2447
4439.23	2407
4439.5	2463
4439.76	2473
4440.02	2353
4440.29	2391
4440.55	2449
4440.82	2521
4441.08	2459
4441.34	2407
4441.61	2379
4441.87	2479
4442.13	2589
4442.4	2497
4442.66	2403
4442.92	2551
4443.19	2635
4443.45	2703
4443.71	2555
4443.98	2591
4444.24	2725
4444.5	2887
4444.77	2813
4445.03	2835
4445.29	2941
4445.56	2979
4445.82	3025
4446.08	3025
4446.35	3287
4446.61	3309
4446.87	3375
4447.14	3349
4447.4	3533
4447.66	3693
4447.93	3839
4448.19	3809
4448.45	3867
4448.72	4217
4448.98	4409
4449.24	4399
4449.5	4455
4449.77	4581
4450.03	4907
4450.29	5069
4450.56	5203
4450.82	5299
4451.08	5609
4451.34	5785
4451.61	6027
4451.87	6129
4452.13	6369
4452.4	6607
4452.66	6711
4452.92	7037
4453.18	7225
4453.45	7575
4453.71	7393
4453.97	7353
4454.23	7775
4454.5	8063
4454.76	8483
4455.02	8157
4455.29	7863
4455.55	8395
4455.81	8747
4456.07	8629
4456.34	8253
4456.6	8263
4456.86	8397
4457.12	8523
4457.39	8337
4457.65	8087
4457.91	8153
4458.17	8001
4458.44	7763
4458.7	7537
4458.96	7565
4459.22	7493
4459.48	7111
4459.75	6747
4460.01	6857
4460.27	6785
4460.53	6465
4460.8	6011
4461.06	5877
4461.32	5957
4461.58	5887
4461.84	5449
4462.11	5239
4462.37	5129
4462.63	5115
4462.89	4891
4463.16	4723
4463.42	4427
4463.68	4373
4463.94	4111
4464.2	4019
4464.47	3961
4464.73	3887
4464.99	3765
4465.25	3533
4465.51	3367
4465.77	3417
4466.04	3333
4466.3	3159
4466.56	3011
4466.82	2969
4467.08	2991
4467.34	2897
4467.61	2679
4467.87	2561
4468.13	2617
4468.39	2625
4468.65	2479
4468.92	2353
4469.18	2245
4469.44	2255
4469.7	2175
4469.96	2119
4470.22	2009
4470.48	1981
4470.75	1981
4471.01	1947
4471.27	1849
4471.53	1833
4471.79	1803
4472.05	1755
4472.32	1655
4472.58	1717
4472.84	1655
4473.1	1595
4473.36	1527
4473.62	1505
4473.88	1537
4474.14	1535
4474.41	1409
4474.67	1391
4474.93	1385
4475.19	1353
4475.45	1345
4475.71	1299
4475.97	1311
4476.23	1273
4476.5	1291
4476.76	1247
4477.02	1199
4477.28	1223
4477.54	1177
4477.8	1197
4478.06	1121
4478.32	1131
4478.58	1169
4478.84	1099
4479.1	1043
4479.37	1093
4479.63	1123
4479.89	1123
4480.15	1045
4480.41	1019
4480.67	1051
4480.93	1071
4481.19	1021
4481.45	989
4481.71	951
4481.97	999
4482.23	1003
4482.5	979
4482.76	973
4483.02	935
4483.28	951
4483.54	899
4483.8	923
4484.06	921
4484.32	913
4484.58	889
4484.84	877
4485.1	851
4485.36	875
4485.62	861
4485.88	823
4486.14	805
4486.4	807
4486.66	845
4486.93	815
4487.19	781
4487.44	777
4487.71	793
4487.97	783
4488.23	759
4488.49	735
4488.75	733
4489.01	753
4489.27	747
4489.53	719
4489.79	733
4490.05	693
4490.31	737
4490.57	687
4490.83	703
4491.09	705
4491.35	671
4491.61	669
4491.87	637
4492.13	659
4492.39	679
4492.65	647
4492.91	637
4493.17	645
4493.43	643
4493.69	647
4493.95	615
4494.21	589
4494.47	617
4494.73	649
4494.99	611
4495.25	613
4495.51	573
4495.77	571
4496.03	559
4496.29	577
4496.55	577
4496.81	579
4497.07	555
4497.33	589
4497.58	585
4497.85	559
4498.1	571
4498.36	573
4498.62	541
4498.88	561
4499.14	555
4499.4	557
4499.66	559
4499.92	541
4500.18	541
4500.44	541
4500.7	519
4500.96	515
4501.22	533
4501.48	547
4501.74	547
4502	525
4502.25	537
4502.51	523
4502.77	535
4503.03	483
4503.29	505
4503.55	529
4503.81	527
4504.07	507
4504.33	477
4504.59	485
4504.85	507
4505.11	483
4505.37	483
4505.63	473
4505.88	505
4506.14	513
4506.4	443
4506.66	471
4506.92	489
4507.18	475
4507.44	479
4507.7	473
4507.96	441
4508.22	457
4508.47	463
4508.73	455
4508.99	441
4509.25	457
4509.51	453
4509.77	433
4510.03	435
4510.29	451
4510.54	459
4510.8	427
4511.06	395
4511.32	407
4511.58	427
4511.84	451
4512.1	453
4512.35	405
4512.61	411
4512.87	427
4513.13	433
4513.39	407
4513.65	401
4513.91	413
4514.16	403
4514.42	417
4514.68	399
4514.94	397
4515.2	401
4515.46	419
4515.72	387
4515.97	391
4516.23	385
4516.49	405
4516.75	413
4517.01	411
4517.26	419
4517.52	417
4517.78	411
4518.04	395
4518.3	401
4518.56	425
4518.81	415
4519.07	417
4519.33	411
4519.59	415
4519.85	417
4520.1	423
4520.36	395
4520.62	389
4520.88	421
4521.14	405
4521.39	397
4521.65	393
4521.91	425
4522.17	433
4522.43	409
4522.68	411
4522.94	419
4523.2	413
4523.46	411
4523.72	417
4523.97	439
4524.23	431
4524.49	443
4524.75	411
4525	407
4525.26	439
4525.52	421
4525.78	439
4526.03	441
4526.29	419
4526.55	457
4526.81	455
4527.07	471
4527.32	457
4527.58	453
4527.84	455
4528.1	471
4528.35	461
4528.61	449
4528.87	445
4529.13	485
4529.38	461
4529.64	485
4529.9	501
4530.15	485
4530.41	497
4530.67	455
4530.93	449
4531.18	471
4531.44	473
4531.7	437
4531.96	459
4532.21	453
4532.47	485
4532.73	461
4532.98	451
4533.24	431
4533.5	453
4533.76	443
4534.01	439
4534.27	465
