#Acq. time (s)=	1
#Accumulations=	2
#Range=	Off
#Autofocus=	Off
#AutoExposure=	Off
#Spike filter=	Multiple accum.
#Delay time (s)=	0
#Binning=	1
#Readout mode=	Signal
#DeNoise=	Off
#ICS correction=	Off
#Dark correction=	Off
#Inst. Process=	Off
#Detector Gain=	Best Dynamic Range
#Detector ADC=	45 kHz       
#Detector temperature (°C)=	-60.1
#Instrument=	LabRAM HR Evol
#Detector=	Syncerity
#Objective=	x50Lwd
#Grating=	1800 gr/mm
#Laser (nm)=	532 
#Spectro (cm-¹)=	4450
#ND Filter=	0.01%
#Hole=	100.021
#StageXY=	Marzhauser
#StageZ=	Marzhauser
#X (µm)=	0
#Y (µm)=	0
#Z (µm)=	93.8
#Full time(s)=	3
#Project=	A
#Sample=	B
#Site=	C
#Title=	G_P00_41
#Remark=	
#Date=	13.12.2021 08:20
#Acquired=	13.12.2021 08:20:12
#AxisType[0]=Intens
#AxisUnit[0]=Cnt
#AxisType[1]=Spectr
#AxisUnit[1]=1/cm
4313.06	295
4313.33	295
4313.6	287
4313.87	299
4314.15	295
4314.42	305
4314.69	309
4314.97	299
4315.24	293
4315.51	311
4315.79	303
4316.06	301
4316.33	303
4316.6	305
4316.88	275
4317.15	297
4317.42	295
4317.7	301
4317.97	293
4318.24	305
4318.52	279
4318.79	305
4319.06	289
4319.33	303
4319.61	293
4319.88	291
4320.15	293
4320.43	287
4320.7	285
4320.97	315
4321.24	297
4321.52	283
4321.79	279
4322.06	293
4322.33	289
4322.61	285
4322.88	311
4323.15	301
4323.42	301
4323.7	283
4323.97	303
4324.24	303
4324.51	309
4324.79	317
4325.06	301
4325.33	289
4325.6	307
4325.88	303
4326.15	273
4326.42	293
4326.69	295
4326.96	297
4327.24	301
4327.51	307
4327.78	297
4328.05	319
4328.33	293
4328.6	295
4328.87	309
4329.14	319
4329.41	277
4329.69	293
4329.96	313
4330.23	305
4330.5	297
4330.77	303
4331.05	311
4331.32	313
4331.59	305
4331.86	317
4332.13	299
4332.41	319
4332.68	283
4332.95	325
4333.22	299
4333.49	305
4333.77	295
4334.04	315
4334.31	301
4334.58	317
4334.85	295
4335.12	299
4335.4	299
4335.67	307
4335.94	295
4336.21	329
4336.48	301
4336.75	317
4337.03	321
4337.3	327
4337.57	315
4337.84	315
4338.11	301
4338.38	327
4338.66	311
4338.93	329
4339.2	327
4339.47	309
4339.74	317
4340.01	323
4340.28	311
4340.56	313
4340.83	299
4341.1	329
4341.37	325
4341.64	319
4341.91	325
4342.18	317
4342.45	319
4342.73	329
4343	323
4343.27	325
4343.54	309
4343.81	311
4344.08	305
4344.35	309
4344.62	309
4344.9	331
4345.17	315
4345.44	325
4345.71	319
4345.98	355
4346.25	327
4346.52	325
4346.79	303
4347.06	327
4347.33	335
4347.6	337
4347.88	331
4348.15	303
4348.42	323
4348.69	349
4348.96	329
4349.23	329
4349.5	329
4349.77	335
4350.04	343
4350.31	333
4350.58	353
4350.85	339
4351.12	321
4351.39	333
4351.66	337
4351.94	333
4352.21	349
4352.48	341
4352.75	339
4353.02	335
4353.29	337
4353.56	341
4353.83	335
4354.1	329
4354.37	341
4354.64	349
4354.91	331
4355.18	353
4355.45	357
4355.72	351
4355.99	343
4356.26	351
4356.53	341
4356.8	363
4357.07	335
4357.34	349
4357.61	357
4357.88	343
4358.15	341
4358.42	365
4358.69	363
4358.96	361
4359.23	347
4359.5	331
4359.77	345
4360.04	365
4360.31	343
4360.58	355
4360.85	371
4361.12	373
4361.39	361
4361.66	375
4361.93	391
4362.2	361
4362.47	371
4362.74	345
4363.01	355
4363.28	357
4363.55	347
4363.82	375
4364.09	373
4364.36	385
4364.63	381
4364.9	363
4365.17	361
4365.44	373
4365.71	381
4365.98	369
4366.25	395
4366.52	415
4366.79	395
4367.06	405
4367.33	387
4367.6	383
4367.87	387
4368.14	395
4368.41	405
4368.67	389
4368.95	403
4369.21	391
4369.48	401
4369.75	399
4370.02	389
4370.29	403
4370.56	391
4370.83	411
4371.1	403
4371.37	417
4371.64	435
4371.91	417
4372.18	415
4372.45	411
4372.72	419
4372.98	417
4373.25	431
4373.52	431
4373.79	421
4374.06	419
4374.33	439
4374.6	435
4374.87	441
4375.14	437
4375.41	431
4375.67	459
4375.94	463
4376.21	435
4376.48	459
4376.75	463
4377.02	461
4377.29	477
4377.56	471
4377.83	469
4378.09	473
4378.36	485
4378.63	451
4378.9	487
4379.17	485
4379.44	501
4379.71	473
4379.98	493
4380.24	485
4380.51	489
4380.78	509
4381.05	505
4381.32	509
4381.59	481
4381.86	503
4382.12	533
4382.39	509
4382.66	519
4382.93	507
4383.2	535
4383.47	535
4383.73	551
4384	533
4384.27	527
4384.54	555
4384.81	543
4385.08	565
4385.34	541
4385.61	565
4385.88	521
4386.15	593
4386.42	561
4386.69	553
4386.95	579
4387.22	565
4387.49	579
4387.76	587
4388.03	605
4388.29	599
4388.56	597
4388.83	607
4389.1	631
4389.37	633
4389.63	625
4389.9	621
4390.17	649
4390.44	645
4390.71	673
4390.97	641
4391.24	601
4391.51	651
4391.78	695
4392.05	653
4392.31	693
4392.58	671
4392.85	697
4393.12	711
4393.38	689
4393.65	697
4393.92	741
4394.19	721
4394.46	721
4394.72	755
4394.99	745
4395.26	755
4395.53	775
4395.79	755
4396.06	759
4396.33	803
4396.6	749
4396.86	765
4397.13	795
4397.4	837
4397.67	855
4397.93	797
4398.2	833
4398.47	845
4398.74	857
4399	875
4399.27	829
4399.54	909
4399.81	919
4400.07	921
4400.34	875
4400.61	921
4400.87	931
4401.14	911
4401.41	967
4401.68	999
4401.94	1001
4402.21	1027
4402.48	993
4402.74	1021
4403.01	1047
4403.28	1063
4403.54	1057
4403.81	1099
4404.08	1081
4404.35	1121
4404.61	1141
4404.88	1151
4405.15	1169
4405.41	1171
4405.68	1229
4405.95	1261
4406.22	1259
4406.48	1249
4406.75	1239
4407.02	1305
4407.28	1367
4407.55	1373
4407.82	1389
4408.08	1389
4408.35	1431
4408.62	1463
4408.88	1535
4409.15	1525
4409.42	1505
4409.68	1581
4409.95	1625
4410.22	1717
4410.48	1683
4410.75	1729
4411.02	1773
4411.28	1875
4411.55	1847
4411.81	1853
4412.08	1959
4412.35	2035
4412.61	2049
4412.88	2107
4413.15	2165
4413.41	2211
4413.68	2231
4413.95	2323
4414.21	2405
4414.48	2451
4414.75	2511
4415.01	2529
4415.28	2677
4415.54	2809
4415.81	2889
4416.08	2885
4416.34	2871
4416.61	3025
4416.87	3245
4417.14	3219
4417.41	3345
4417.67	3447
4417.94	3523
4418.21	3657
4418.47	3779
4418.74	3951
4419	3957
4419.27	4093
4419.53	4225
4419.8	4411
4420.07	4579
4420.33	4689
4420.6	4735
4420.86	4977
4421.13	5231
4421.4	5513
4421.66	5555
4421.93	5657
4422.19	5855
4422.46	6299
4422.72	6445
4422.99	6625
4423.26	6665
4423.52	7029
4423.79	7437
4424.05	7697
4424.32	7857
4424.58	8019
4424.85	8413
4425.12	8807
4425.38	9195
4425.65	9371
4425.91	9607
4426.18	10055
4426.44	10435
4426.71	10747
4426.97	11137
4427.24	11493
4427.5	11755
4427.77	12057
4428.04	12701
4428.3	13143
4428.57	13359
4428.83	13203
4429.1	13751
4429.36	14525
4429.63	14817
4429.89	14627
4430.16	14623
4430.42	15005
4430.69	15617
4430.95	15709
4431.22	15511
4431.48	15317
4431.75	15587
4432.01	15621
4432.28	15529
4432.54	15385
4432.81	15229
4433.07	15121
4433.34	14771
4433.6	14701
4433.87	14867
4434.13	14191
4434.4	13685
4434.66	13555
4434.93	13587
4435.19	13397
4435.46	12883
4435.72	12251
4435.99	12107
4436.25	12059
4436.52	11787
4436.78	11255
4437.05	10925
4437.31	10685
4437.58	10619
4437.84	10357
4438.11	10105
4438.37	9581
4438.63	9521
4438.9	9395
4439.16	9197
4439.43	9175
4439.69	8945
4439.96	8587
4440.22	8395
4440.49	8427
4440.75	8399
4441.02	8295
4441.28	7839
4441.54	7853
4441.81	7931
4442.07	7963
4442.34	7841
4442.6	7617
4442.87	7633
4443.13	7703
4443.4	7639
4443.66	7633
4443.92	7539
4444.19	7573
4444.45	7545
4444.72	7611
4444.98	7637
4445.25	7659
4445.51	7595
4445.77	7457
4446.04	7661
4446.3	7873
4446.57	8043
4446.83	7883
4447.09	7843
4447.36	7979
4447.62	8299
4447.88	8341
4448.15	8155
4448.41	8179
4448.68	8597
4448.94	8789
4449.21	8693
4449.47	8813
4449.73	8875
4450	9319
4450.26	9533
4450.52	9717
4450.79	9907
4451.05	10033
4451.32	10175
4451.58	10517
4451.84	10687
4452.11	11177
4452.37	11385
4452.63	11277
4452.9	11717
4453.16	12285
4453.43	12569
4453.69	12713
4453.95	12867
4454.22	13301
4454.48	14017
4454.74	14491
4455.01	14581
4455.27	14765
4455.53	15285
4455.8	15905
4456.06	16297
4456.32	16449
4456.59	16667
4456.85	17307
4457.11	17973
4457.38	18499
4457.64	18801
4457.9	18809
4458.17	19265
4458.43	19841
4458.69	20369
4458.96	20739
4459.22	20945
4459.48	20897
4459.75	21047
4460.01	21551
4460.27	21985
4460.54	21983
4460.8	21461
4461.06	21555
4461.32	22267
4461.59	22435
4461.85	21851
4462.11	21435
4462.38	21089
4462.64	21171
4462.9	21455
4463.17	20887
4463.43	20181
4463.69	20127
4463.96	19723
4464.22	19343
4464.48	18837
4464.74	18453
4465.01	18015
4465.27	17565
4465.53	17033
4465.79	17087
4466.06	16477
4466.32	15647
4466.58	15153
4466.84	14945
4467.11	14973
4467.37	14399
4467.63	13643
4467.9	13251
4468.16	13043
4468.42	12893
4468.68	12417
4468.95	11815
4469.21	11379
4469.47	11255
4469.73	10849
4470	10529
4470.26	10461
4470.52	10051
4470.78	9601
4471.05	9395
4471.31	9237
4471.57	8979
4471.83	8595
4472.09	8225
4472.36	8113
4472.62	8015
4472.88	7771
4473.14	7443
4473.41	7189
4473.67	7145
4473.93	7051
4474.19	6871
4474.45	6507
4474.72	6397
4474.98	6281
4475.24	6175
4475.5	6067
4475.77	5865
4476.03	5621
4476.29	5515
4476.55	5545
4476.81	5301
4477.08	5285
4477.34	5135
4477.6	4961
4477.86	4725
4478.12	4775
4478.38	4733
4478.65	4671
4478.91	4519
4479.17	4375
4479.43	4363
4479.69	4357
4479.96	4233
4480.22	4061
4480.48	3869
4480.74	3943
4481	4075
4481.26	3859
4481.53	3723
4481.79	3641
4482.05	3659
4482.31	3673
4482.57	3597
4482.83	3487
4483.1	3499
4483.36	3391
4483.62	3349
4483.88	3387
4484.14	3367
4484.4	3259
4484.67	3223
4484.93	3113
4485.19	3245
4485.45	3141
4485.71	3041
4485.97	2983
4486.23	2875
4486.49	2993
4486.76	2981
4487.02	2905
4487.28	2783
4487.54	2809
4487.8	2807
4488.06	2777
4488.32	2713
4488.58	2747
4488.85	2659
4489.11	2613
4489.37	2619
4489.63	2577
4489.89	2563
4490.15	2527
4490.41	2477
4490.67	2535
4490.93	2473
4491.2	2371
4491.46	2367
4491.72	2371
4491.98	2373
4492.24	2335
4492.5	2309
4492.76	2229
4493.02	2205
4493.28	2181
4493.54	2275
4493.8	2245
4494.06	2091
4494.33	2077
4494.59	2083
4494.85	2061
4495.11	2043
4495.37	2057
4495.63	1975
4495.89	1885
4496.15	1919
4496.41	1947
4496.67	1935
4496.93	1907
4497.19	1829
4497.45	1807
4497.71	1823
4497.98	1831
4498.23	1751
4498.5	1793
4498.76	1741
4499.02	1773
4499.28	1779
4499.54	1699
4499.8	1615
4500.06	1689
4500.32	1697
4500.58	1711
4500.84	1619
4501.1	1573
4501.36	1607
4501.62	1631
4501.88	1649
4502.14	1639
4502.4	1591
4502.66	1559
4502.92	1531
4503.18	1571
4503.44	1575
4503.7	1543
4503.96	1509
4504.22	1469
4504.48	1495
4504.74	1505
4505	1465
4505.26	1469
4505.52	1447
4505.78	1445
4506.04	1501
4506.3	1423
4506.56	1399
4506.82	1379
4507.08	1347
4507.34	1401
4507.6	1365
4507.86	1417
4508.12	1339
4508.38	1379
4508.64	1367
4508.9	1341
4509.16	1325
4509.42	1275
4509.68	1321
4509.94	1317
4510.2	1257
4510.46	1297
4510.72	1333
4510.98	1253
4511.24	1231
4511.5	1251
4511.76	1235
4512.02	1229
4512.27	1183
4512.54	1187
4512.79	1167
4513.05	1169
4513.31	1189
4513.57	1181
4513.83	1139
4514.09	1147
4514.35	1159
4514.61	1163
4514.87	1111
4515.13	1121
4515.39	1119
4515.65	1101
4515.91	1131
4516.17	1119
4516.43	1109
4516.68	1083
4516.94	1059
4517.2	1083
4517.46	1081
4517.72	1095
4517.98	1047
4518.24	1057
4518.5	1065
4518.76	1083
4519.02	1065
4519.28	1053
4519.53	1029
4519.79	1013
4520.05	1061
4520.31	1017
4520.57	1021
4520.83	1033
4521.09	987
4521.35	1035
4521.61	1035
4521.86	1017
4522.12	1013
4522.38	1005
4522.64	1037
4522.9	1043
4523.16	1025
4523.42	1025
4523.68	965
4523.94	1027
4524.19	1007
4524.45	1039
4524.71	1021
4524.97	977
4525.23	991
4525.49	1013
4525.75	1051
4526	1019
4526.26	1017
4526.52	1031
4526.78	1059
4527.04	1037
4527.3	1009
4527.56	1023
4527.81	1021
4528.07	1037
4528.33	1043
4528.59	1047
4528.85	997
4529.11	1047
4529.36	1023
4529.62	1025
4529.88	1073
4530.14	1063
4530.4	1051
4530.66	1023
4530.91	1059
4531.17	1103
4531.43	1085
4531.69	1065
4531.95	1055
4532.21	1095
4532.46	1089
4532.72	1111
4532.98	1097
4533.24	1101
4533.49	1085
4533.75	1105
4534.01	1097
4534.27	1099
4534.53	1089
4534.79	1123
4535.04	1093
4535.3	1133
4535.56	1097
4535.82	1093
4536.07	1119
4536.33	1049
4536.59	1091
4536.85	1127
4537.11	1103
4537.36	1081
4537.62	1059
4537.88	1053
4538.14	1079
4538.39	1073
4538.65	1051
4538.91	1039
4539.17	1045
4539.43	1077
4539.68	1031
4539.94	1041
4540.2	1035
4540.46	1015
4540.71	1017
4540.97	993
4541.23	1001
4541.49	987
4541.74	975
4542	999
4542.26	991
4542.52	999
4542.77	985
4543.03	943
4543.29	925
4543.54	951
4543.8	973
4544.06	953
4544.32	935
4544.57	929
4544.83	973
4545.09	947
4545.35	927
4545.6	905
4545.86	895
4546.12	889
4546.37	929
4546.63	897
4546.89	907
4547.15	867
4547.4	895
4547.66	901
4547.92	907
4548.17	883
4548.43	881
4548.69	869
4548.95	865
4549.2	893
4549.46	889
4549.72	809
4549.97	831
4550.23	833
4550.49	857
4550.74	843
4551	801
4551.26	791
4551.51	801
4551.77	819
4552.03	809
4552.28	771
4552.54	785
4552.8	791
4553.05	783
4553.31	795
4553.57	769
4553.82	789
4554.08	783
4554.34	709
4554.59	733
4554.85	763
4555.11	763
4555.36	739
4555.62	737
4555.88	727
4556.13	731
4556.39	743
4556.65	721
4556.9	707
4557.16	665
4557.41	701
4557.67	713
4557.93	727
4558.18	695
4558.44	685
4558.7	699
4558.95	715
4559.21	709
4559.47	723
4559.72	691
4559.98	703
4560.23	683
4560.49	725
4560.75	689
4561	685
4561.26	685
4561.51	689
4561.77	713
4562.03	711
4562.28	711
4562.54	715
4562.79	721
4563.05	729
4563.31	709
4563.56	729
4563.82	685
4564.07	705
4564.33	719
4564.59	689
4564.84	747
4565.1	709
4565.35	733
4565.61	709
4565.86	743
4566.12	731
4566.38	725
4566.63	701
4566.89	729
4567.14	763
4567.4	757
4567.66	771
4567.91	729
4568.17	733
4568.42	737
4568.68	773
4568.93	811
4569.19	793
4569.44	763
4569.7	777
4569.96	797
4570.21	803
4570.47	819
4570.72	789
4570.98	791
4571.23	825
4571.49	779
4571.74	837
4572	825
4572.25	827
4572.51	861
4572.76	847
4573.02	861
4573.27	879
4573.53	897
4573.78	907
4574.04	895
4574.3	907
4574.55	937
4574.81	947
4575.06	941
4575.32	941
4575.57	951
4575.83	1001
4576.08	989
4576.34	961
4576.59	997
4576.85	1037
4577.1	1063
4577.36	1055
4577.61	1071
4577.87	1053
4578.12	1111
4578.38	1133
4578.63	1129
4578.89	1121
4579.14	1147
4579.4	1147
4579.65	1195
4579.91	1223
4580.16	1217
4580.41	1249
4580.67	1193
4580.92	1237
4581.18	1245
4581.43	1265
4581.69	1249
4581.94	1223
4582.2	1227
4582.45	1287
4582.71	1303
4582.96	1265
