#Acq. time (s)=	1
#Accumulations=	2
#Range=	Off
#Autofocus=	Off
#AutoExposure=	Off
#Spike filter=	Multiple accum.
#Delay time (s)=	0
#Binning=	1
#Readout mode=	Signal
#DeNoise=	Off
#ICS correction=	Off
#Dark correction=	Off
#Inst. Process=	Off
#Detector Gain=	Best Dynamic Range
#Detector ADC=	45 kHz       
#Detector temperature (°C)=	-60.1
#Instrument=	LabRAM HR Evol
#Detector=	Syncerity
#Objective=	x50Lwd
#Grating=	1800 gr/mm
#Laser (nm)=	532 
#Spectro (cm-¹)=	4400
#ND Filter=	0.01%
#Hole=	100.021
#StageXY=	Marzhauser
#StageZ=	Marzhauser
#X (µm)=	0
#Y (µm)=	0
#Z (µm)=	61.9
#Full time(s)=	3
#Project=	A
#Sample=	B
#Site=	C
#Title=	G_P00_40
#Remark=	
#Date=	09.12.2021 17:09
#Acquired=	09.12.2021 17:09:58
#AxisType[0]=Intens
#AxisUnit[0]=Cnt
#AxisType[1]=Spectr
#AxisUnit[1]=1/cm
4261.72	353
4262	353
4262.27	371
4262.55	355
4262.82	339
4263.1	379
4263.37	351
4263.65	375
4263.93	357
4264.2	359
4264.48	363
4264.75	363
4265.03	367
4265.3	351
4265.58	357
4265.86	369
4266.13	365
4266.41	357
4266.68	371
4266.96	367
4267.23	361
4267.51	353
4267.78	357
4268.06	365
4268.34	365
4268.61	369
4268.89	361
4269.16	361
4269.44	365
4269.71	361
4269.99	379
4270.26	349
4270.54	355
4270.81	375
4271.09	373
4271.36	353
4271.64	369
4271.91	367
4272.19	357
4272.47	345
4272.74	381
4273.02	377
4273.29	371
4273.57	363
4273.84	371
4274.12	369
4274.39	361
4274.67	345
4274.94	359
4275.22	353
4275.49	357
4275.77	343
4276.04	347
4276.32	359
4276.59	357
4276.86	355
4277.14	361
4277.42	361
4277.69	393
4277.96	359
4278.24	353
4278.51	353
4278.79	369
4279.06	335
4279.34	363
4279.61	365
4279.89	369
4280.16	373
4280.44	345
4280.71	361
4280.99	373
4281.26	367
4281.54	373
4281.81	363
4282.08	363
4282.36	349
4282.63	355
4282.91	343
4283.18	361
4283.46	365
4283.73	341
4284.01	357
4284.28	365
4284.55	371
4284.83	357
4285.1	333
4285.38	359
4285.65	359
4285.93	367
4286.2	357
4286.47	357
4286.75	375
4287.02	365
4287.3	359
4287.57	357
4287.85	373
4288.12	343
4288.39	349
4288.67	363
4288.94	371
4289.22	363
4289.49	367
4289.76	367
4290.04	359
4290.31	357
4290.59	347
4290.86	363
4291.13	359
4291.41	367
4291.68	347
4291.95	361
4292.23	357
4292.5	349
4292.78	357
4293.05	379
4293.32	353
4293.6	361
4293.87	377
4294.15	371
4294.42	383
4294.69	345
4294.97	359
4295.24	373
4295.51	365
4295.79	371
4296.06	355
4296.33	357
4296.61	361
4296.88	377
4297.15	373
4297.43	365
4297.7	353
4297.98	365
4298.25	361
4298.52	367
4298.8	365
4299.07	367
4299.34	361
4299.62	375
4299.89	367
4300.16	343
4300.43	375
4300.71	353
4300.98	373
4301.25	353
4301.53	361
4301.8	325
4302.07	365
4302.35	359
4302.62	341
4302.89	361
4303.17	363
4303.44	369
4303.71	355
4303.99	359
4304.26	355
4304.53	365
4304.81	365
4305.08	371
4305.35	367
4305.62	363
4305.9	369
4306.17	359
4306.44	347
4306.72	381
4306.99	373
4307.26	355
4307.53	367
4307.81	365
4308.08	377
4308.35	375
4308.62	389
4308.9	347
4309.17	353
4309.44	389
4309.72	345
4309.99	365
4310.26	381
4310.53	375
4310.81	349
4311.08	367
4311.35	371
4311.62	351
4311.9	355
4312.17	367
4312.44	373
4312.71	357
4312.98	383
4313.26	379
4313.53	375
4313.8	367
4314.08	377
4314.35	375
4314.62	365
4314.89	377
4315.16	381
4315.44	375
4315.71	365
4315.98	373
4316.25	383
4316.53	395
4316.8	363
4317.07	391
4317.34	359
4317.61	357
4317.89	385
4318.16	365
4318.43	371
4318.7	377
4318.97	361
4319.25	371
4319.52	387
4319.79	371
4320.06	369
4320.33	359
4320.61	397
4320.88	373
4321.15	379
4321.42	370
4321.69	355
4321.96	379
4322.24	393
4322.51	399
4322.78	383
4323.05	387
4323.32	367
4323.6	361
4323.87	385
4324.14	387
4324.41	383
4324.68	377
4324.95	377
4325.22	393
4325.5	389
4325.77	381
4326.04	377
4326.31	363
4326.58	391
4326.85	399
4327.13	407
4327.4	385
4327.67	393
4327.94	387
4328.21	387
4328.48	403
4328.75	387
4329.02	391
4329.3	401
4329.57	403
4329.84	405
4330.11	385
4330.38	371
4330.65	385
4330.92	407
4331.19	401
4331.47	397
4331.74	401
4332.01	383
4332.28	401
4332.55	407
4332.82	411
4333.09	421
4333.36	399
4333.63	375
4333.91	415
4334.18	381
4334.45	419
4334.72	421
4334.99	429
4335.26	413
4335.53	391
4335.8	401
4336.07	415
4336.34	403
4336.61	397
4336.89	403
4337.16	419
4337.43	413
4337.7	393
4337.97	431
4338.24	417
4338.51	427
4338.78	433
4339.05	427
4339.32	411
4339.59	415
4339.86	419
4340.13	423
4340.4	419
4340.67	417
4340.94	433
4341.21	437
4341.49	411
4341.76	429
4342.03	427
4342.3	437
4342.57	427
4342.84	431
4343.11	425
4343.38	445
4343.65	415
4343.92	429
4344.19	419
4344.46	431
4344.73	451
4345	433
4345.27	431
4345.54	419
4345.81	447
4346.08	459
4346.35	453
4346.62	441
4346.89	453
4347.16	429
4347.43	461
4347.7	455
4347.97	453
4348.24	427
4348.51	447
4348.78	479
4349.05	459
4349.32	439
4349.59	447
4349.86	481
4350.13	465
4350.4	497
4350.67	459
4350.94	481
4351.21	487
4351.48	479
4351.75	479
4352.02	483
4352.29	475
4352.56	493
4352.83	469
4353.1	497
4353.37	481
4353.64	475
4353.91	475
4354.18	495
4354.45	489
4354.72	479
4354.99	493
4355.25	507
4355.52	479
4355.79	503
4356.06	493
4356.33	509
4356.6	515
4356.87	497
4357.14	525
4357.41	517
4357.68	521
4357.95	531
4358.22	539
4358.49	517
4358.76	527
4359.03	537
4359.3	523
4359.56	543
4359.83	537
4360.1	547
4360.37	519
4360.64	549
4360.91	555
4361.18	563
4361.45	531
4361.72	549
4361.99	555
4362.26	577
4362.52	591
4362.79	579
4363.06	559
4363.33	589
4363.6	559
4363.87	567
4364.14	595
4364.41	593
4364.68	589
4364.94	601
4365.21	631
4365.48	603
4365.75	615
4366.02	633
4366.29	621
4366.56	607
4366.83	597
4367.09	631
4367.36	623
4367.63	613
4367.9	665
4368.17	647
4368.44	665
4368.71	655
4368.98	651
4369.24	635
4369.51	651
4369.78	675
4370.05	675
4370.32	653
4370.59	659
4370.86	703
4371.12	693
4371.39	681
4371.66	689
4371.93	707
4372.2	733
4372.47	739
4372.73	719
4373	713
4373.27	753
4373.54	763
4373.81	761
4374.07	767
4374.34	747
4374.61	789
4374.88	789
4375.15	787
4375.42	797
4375.68	809
4375.95	801
4376.22	837
4376.49	837
4376.76	873
4377.02	833
4377.29	833
4377.56	883
4377.83	853
4378.1	887
4378.36	891
4378.63	885
4378.9	899
4379.17	939
4379.44	907
4379.7	923
4379.97	951
4380.24	945
4380.51	975
4380.77	1019
4381.04	985
4381.31	977
4381.58	1015
4381.85	1049
4382.11	1043
4382.38	1041
4382.65	1039
4382.92	1037
4383.18	1089
4383.45	1099
4383.72	1117
4383.99	1159
4384.25	1141
4384.52	1151
4384.79	1173
4385.06	1211
4385.32	1203
4385.59	1227
4385.86	1223
4386.13	1273
4386.39	1331
4386.66	1307
4386.93	1337
4387.19	1347
4387.46	1391
4387.73	1413
4388	1417
4388.26	1447
4388.53	1501
4388.8	1481
4389.07	1495
4389.33	1561
4389.6	1567
4389.87	1629
4390.13	1641
4390.4	1705
4390.67	1719
4390.94	1793
4391.2	1815
4391.47	1815
4391.74	1889
4392	1919
4392.27	2003
4392.54	1977
4392.8	2117
4393.07	2157
4393.34	2163
4393.6	2181
4393.87	2251
4394.14	2361
4394.41	2433
4394.67	2389
4394.94	2519
4395.21	2553
4395.47	2713
4395.74	2673
4396.01	2899
4396.27	2963
4396.54	3039
4396.81	3103
4397.07	3155
4397.34	3341
4397.61	3435
4397.87	3507
4398.14	3635
4398.41	3857
4398.67	3975
4398.94	4057
4399.2	4179
4399.47	4267
4399.74	4515
4400	4735
4400.27	4957
4400.54	4955
4400.8	5315
4401.07	5527
4401.34	5785
4401.6	6107
4401.87	6331
4402.14	6463
4402.4	6757
4402.67	7111
4402.93	7413
4403.2	7873
4403.47	8103
4403.73	8425
4404	8885
4404.26	9509
4404.53	9815
4404.8	10127
4405.06	10493
4405.33	11095
4405.59	11797
4405.86	12195
4406.13	12631
4406.39	13085
4406.66	13679
4406.93	14419
4407.19	15057
4407.46	15437
4407.72	15959
4407.99	16335
4408.25	17149
4408.52	17855
4408.79	18261
4409.05	18549
4409.32	18963
4409.58	19747
4409.85	20013
4410.11	20621
4410.38	20775
4410.65	20599
4410.91	21351
4411.18	21697
4411.44	21995
4411.71	21583
4411.97	21403
4412.24	21569
4412.51	21703
4412.77	21607
4413.04	21207
4413.3	20971
4413.57	20847
4413.83	20359
4414.1	20155
4414.36	19729
4414.63	18965
4414.9	18593
4415.16	18083
4415.43	17701
4415.69	17459
4415.96	16661
4416.22	16185
4416.49	15661
4416.75	15509
4417.02	15063
4417.28	14483
4417.55	13913
4417.81	13609
4418.08	13093
4418.34	13081
4418.61	12435
4418.87	11935
4419.14	11517
4419.4	11401
4419.67	11163
4419.93	10985
4420.2	10473
4420.46	10107
4420.73	10009
4420.99	9753
4421.26	9457
4421.52	9429
4421.79	9057
4422.05	8855
4422.32	8953
4422.58	8819
4422.85	8543
4423.11	8419
4423.38	8363
4423.64	8419
4423.91	8387
4424.17	8377
4424.44	8089
4424.7	8063
4424.97	8147
4425.23	8331
4425.5	8335
4425.76	8197
4426.02	8317
4426.29	8397
4426.55	8491
4426.82	8487
4427.08	8593
4427.35	8597
4427.61	8833
4427.88	8959
4428.14	9263
4428.41	9319
4428.67	9307
4428.94	9513
4429.2	9875
4429.46	10169
4429.73	10317
4429.99	10537
4430.26	10785
4430.52	11241
4430.79	11569
4431.05	11847
4431.31	12027
4431.58	12593
4431.84	13111
4432.11	13391
4432.37	13781
4432.63	14349
4432.9	14829
4433.16	15315
4433.43	16033
4433.69	16593
4433.96	17125
4434.22	17655
4434.48	18311
4434.75	19179
4435.01	20019
4435.28	20405
4435.54	20823
4435.8	21673
4436.07	22457
4436.33	23601
4436.6	24205
4436.86	24991
4437.12	25441
4437.39	26493
4437.65	27233
4437.92	28209
4438.18	28429
4438.44	28949
4438.71	29689
4438.97	30325
4439.23	31009
4439.5	31707
4439.76	31653
4440.02	32135
4440.29	32727
4440.55	33055
4440.82	33255
4441.08	33127
4441.34	33047
4441.61	33063
4441.87	33455
4442.13	33383
4442.4	32961
4442.66	32271
4442.92	31927
4443.19	31927
4443.45	31937
4443.71	30923
4443.98	30363
4444.24	29559
4444.5	29345
4444.77	28733
4445.03	27925
4445.29	27057
4445.56	26253
4445.82	25677
4446.08	25199
4446.35	24689
4446.61	23855
4446.87	22821
4447.14	22053
4447.4	21205
4447.66	21023
4447.93	20081
4448.19	19377
4448.45	18529
4448.72	18145
4448.98	17719
4449.24	16979
4449.5	16251
4449.77	15611
4450.03	15161
4450.29	14757
4450.56	14311
4450.82	13599
4451.08	13289
4451.34	12665
4451.61	12471
4451.87	12123
4452.13	11513
4452.4	11211
4452.66	10727
4452.92	10385
4453.18	10103
4453.45	9787
4453.71	9441
4453.97	9069
4454.23	8869
4454.5	8523
4454.76	8409
4455.02	8079
4455.29	7725
4455.55	7627
4455.81	7435
4456.07	7221
4456.34	6925
4456.6	6689
4456.86	6549
4457.12	6499
4457.39	6135
4457.65	6031
4457.91	5835
4458.17	5739
4458.44	5711
4458.7	5431
4458.96	5277
4459.22	5217
4459.48	5035
4459.75	4969
4460.01	4797
4460.27	4737
4460.53	4581
4460.8	4493
4461.06	4331
4461.32	4259
4461.58	4353
4461.84	4183
4462.11	3999
4462.37	3841
4462.63	3923
4462.89	3849
4463.16	3693
4463.42	3661
4463.68	3527
4463.94	3507
4464.2	3435
4464.47	3359
4464.73	3339
4464.99	3253
4465.25	3269
4465.51	3157
4465.77	3113
4466.04	3075
4466.3	3003
4466.56	2967
4466.82	2945
4467.08	2869
4467.34	2875
4467.61	2785
4467.87	2743
4468.13	2687
4468.39	2699
4468.65	2675
4468.92	2569
4469.18	2547
4469.44	2517
4469.7	2475
4469.96	2429
4470.22	2353
4470.48	2415
4470.75	2345
4471.01	2285
4471.27	2339
4471.53	2239
4471.79	2203
4472.05	2131
4472.32	2185
4472.58	2127
4472.84	2081
4473.1	2047
4473.36	2041
4473.62	1943
4473.88	2055
4474.14	1983
4474.41	1957
4474.67	1869
4474.93	1823
4475.19	1921
4475.45	1867
4475.71	1841
4475.97	1799
4476.23	1801
4476.5	1755
4476.76	1779
4477.02	1739
4477.28	1669
4477.54	1685
4477.8	1705
4478.06	1643
4478.32	1671
4478.58	1575
4478.84	1563
4479.1	1595
4479.37	1557
4479.63	1557
4479.89	1535
4480.15	1531
4480.41	1479
4480.67	1479
4480.93	1465
4481.19	1511
4481.45	1423
4481.71	1441
4481.97	1451
4482.23	1423
4482.5	1429
4482.76	1379
4483.02	1379
4483.28	1367
4483.54	1371
4483.8	1411
4484.06	1347
4484.32	1335
4484.58	1313
4484.84	1321
4485.1	1295
4485.36	1291
4485.62	1301
4485.88	1283
4486.14	1249
4486.4	1275
4486.66	1213
4486.93	1229
4487.19	1231
4487.44	1215
4487.71	1241
4487.97	1205
4488.23	1205
4488.49	1161
4488.75	1153
4489.01	1203
4489.27	1171
4489.53	1171
4489.79	1143
4490.05	1139
4490.31	1145
4490.57	1135
4490.83	1129
4491.09	1117
4491.35	1119
4491.61	1077
4491.87	1053
4492.13	1069
4492.39	1079
4492.65	1051
4492.91	1027
4493.17	1057
4493.43	1091
4493.69	1065
4493.95	1059
4494.21	1013
4494.47	1001
4494.73	1043
4494.99	1029
4495.25	995
4495.51	1021
4495.77	961
4496.03	963
4496.29	965
4496.55	987
4496.81	963
4497.07	941
4497.33	991
4497.58	991
4497.85	955
4498.1	941
4498.36	963
4498.62	979
4498.88	973
4499.14	915
4499.4	915
4499.66	875
4499.92	941
4500.18	919
4500.44	895
4500.7	933
4500.96	901
4501.22	897
4501.48	881
4501.74	907
4502	895
4502.25	885
4502.51	927
4502.77	909
4503.03	875
4503.29	883
4503.55	887
4503.81	893
4504.07	875
4504.33	865
4504.59	873
4504.85	911
4505.11	901
4505.37	865
4505.63	871
4505.88	857
4506.14	853
4506.4	917
4506.66	869
4506.92	863
4507.18	881
4507.44	889
4507.7	887
4507.96	865
4508.22	885
4508.47	895
4508.73	845
4508.99	879
4509.25	901
4509.51	877
4509.77	881
4510.03	905
4510.29	883
4510.54	837
4510.8	869
4511.06	879
4511.32	839
4511.58	859
4511.84	895
4512.1	903
4512.35	873
4512.61	877
4512.87	873
4513.13	879
4513.39	907
4513.65	849
4513.91	883
4514.16	885
4514.42	897
4514.68	895
4514.94	877
4515.2	865
4515.46	881
4515.72	869
4515.97	895
4516.23	871
4516.49	885
4516.75	863
4517.01	851
4517.26	885
4517.52	829
4517.78	837
4518.04	863
4518.3	831
4518.56	863
4518.81	845
4519.07	859
4519.33	825
4519.59	791
4519.85	839
4520.1	825
4520.36	819
4520.62	783
4520.88	815
4521.14	811
4521.39	829
4521.65	801
4521.91	789
4522.17	807
4522.43	807
4522.68	799
4522.94	811
4523.2	801
4523.46	825
4523.72	787
4523.97	783
4524.23	759
4524.49	771
4524.75	777
4525	777
4525.26	771
4525.52	777
4525.78	775
4526.03	741
4526.29	771
4526.55	777
4526.81	781
4527.07	779
4527.32	735
4527.58	733
4527.84	747
4528.1	729
4528.35	739
4528.61	761
4528.87	735
4529.13	715
4529.38	715
4529.64	709
4529.9	727
4530.15	723
4530.41	713
4530.67	701
4530.93	707
4531.18	711
4531.44	707
4531.7	687
4531.96	691
4532.21	667
4532.47	683
4532.73	707
4532.98	683
4533.24	689
4533.5	667
4533.76	683
4534.01	675
4534.27	651
