#Acq. time (s)=	1
#Accumulations=	2
#Range=	Off
#Autofocus=	Off
#AutoExposure=	Off
#Spike filter=	Multiple accum.
#Delay time (s)=	0
#Binning=	1
#Readout mode=	Signal
#DeNoise=	Off
#ICS correction=	Off
#Dark correction=	Off
#Inst. Process=	Off
#Detector Gain=	Best Dynamic Range
#Detector ADC=	45 kHz       
#Detector temperature (°C)=	-60.1
#Instrument=	LabRAM HR Evol
#Detector=	Syncerity
#Objective=	x50Lwd
#Grating=	1800 gr/mm
#Laser (nm)=	532 
#Spectro (cm-¹)=	4400
#ND Filter=	0.01%
#Hole=	100.021
#StageXY=	Marzhauser
#StageZ=	Marzhauser
#X (µm)=	0
#Y (µm)=	0
#Z (µm)=	53
#Full time(s)=	6
#Project=	A
#Sample=	B
#Site=	C
#Title=	G_P00_49
#Remark=	
#Date=	08.12.2021 09:25
#Acquired=	08.12.2021 09:25:58
#AxisType[0]=Intens
#AxisUnit[0]=Cnt
#AxisType[1]=Spectr
#AxisUnit[1]=1/cm
4261.72	187
4262	187
4262.27	195
4262.55	207
4262.82	191
4263.1	191
4263.37	191
4263.65	193
4263.93	181
4264.2	197
4264.48	199
4264.75	199
4265.03	201
4265.3	191
4265.58	193
4265.86	189
4266.13	165
4266.41	181
4266.68	199
4266.96	193
4267.23	187
4267.51	191
4267.78	195
4268.06	197
4268.34	181
4268.61	191
4268.89	189
4269.16	189
4269.44	191
4269.71	195
4269.99	191
4270.26	205
4270.54	191
4270.81	183
4271.09	191
4271.36	179
4271.64	203
4271.91	201
4272.19	199
4272.47	201
4272.74	193
4273.02	189
4273.29	191
4273.57	213
4273.84	199
4274.12	189
4274.39	193
4274.67	189
4274.94	199
4275.22	181
4275.49	189
4275.77	189
4276.04	211
4276.32	199
4276.59	183
4276.86	183
4277.14	203
4277.42	195
4277.69	211
4277.96	191
4278.24	195
4278.51	191
4278.79	207
4279.06	195
4279.34	205
4279.61	193
4279.89	191
4280.16	193
4280.44	193
4280.71	195
4280.99	199
4281.26	187
4281.54	199
4281.81	199
4282.08	195
4282.36	191
4282.63	207
4282.91	199
4283.18	199
4283.46	187
4283.73	195
4284.01	201
4284.28	185
4284.55	201
4284.83	211
4285.1	199
4285.38	199
4285.65	193
4285.93	197
4286.2	211
4286.47	201
4286.75	191
4287.02	207
4287.3	197
4287.57	207
4287.85	197
4288.12	185
4288.39	199
4288.67	201
4288.94	215
4289.22	205
4289.49	217
4289.76	209
4290.04	217
4290.31	207
4290.59	187
4290.86	201
4291.13	201
4291.41	223
4291.68	203
4291.95	193
4292.23	209
4292.5	191
4292.78	215
4293.05	211
4293.32	203
4293.6	215
4293.87	209
4294.15	215
4294.42	219
4294.69	209
4294.97	217
4295.24	205
4295.51	213
4295.79	201
4296.06	201
4296.33	199
4296.61	215
4296.88	221
4297.15	217
4297.43	213
4297.7	197
4297.98	219
4298.25	211
4298.52	211
4298.8	223
4299.07	233
4299.34	217
4299.62	203
4299.89	203
4300.16	233
4300.43	225
4300.71	215
4300.98	211
4301.25	223
4301.53	225
4301.8	209
4302.07	215
4302.35	223
4302.62	221
4302.89	219
4303.17	215
4303.44	211
4303.71	211
4303.99	233
4304.26	219
4304.53	223
4304.81	229
4305.08	229
4305.35	241
4305.62	227
4305.9	225
4306.17	225
4306.44	221
4306.72	239
4306.99	219
4307.26	241
4307.53	231
4307.81	229
4308.08	235
4308.35	237
4308.62	227
4308.9	235
4309.17	231
4309.44	245
4309.72	235
4309.99	227
4310.26	229
4310.53	245
4310.81	241
4311.08	245
4311.35	245
4311.62	247
4311.9	241
4312.17	243
4312.44	237
4312.71	253
4312.98	241
4313.26	255
4313.53	257
4313.8	229
4314.08	251
4314.35	247
4314.62	255
4314.89	243
4315.16	241
4315.44	241
4315.71	253
4315.98	249
4316.25	269
4316.53	273
4316.8	261
4317.07	249
4317.34	259
4317.61	255
4317.89	255
4318.16	277
4318.43	247
4318.7	263
4318.97	277
4319.25	267
4319.52	261
4319.79	279
4320.06	277
4320.33	261
4320.61	269
4320.88	269
4321.15	271
4321.42	277
4321.69	283
4321.96	281
4322.24	263
4322.51	285
4322.78	293
4323.05	289
4323.32	275
4323.6	299
4323.87	281
4324.14	291
4324.41	297
4324.68	305
4324.95	303
4325.22	307
4325.5	311
4325.77	299
4326.04	319
4326.31	301
4326.58	307
4326.85	313
4327.13	299
4327.4	319
4327.67	317
4327.94	329
4328.21	305
4328.48	333
4328.75	327
4329.02	335
4329.3	325
4329.57	335
4329.84	349
4330.11	341
4330.38	339
4330.65	343
4330.92	349
4331.19	335
4331.47	353
4331.74	357
4332.01	357
4332.28	357
4332.55	363
4332.82	335
4333.09	363
4333.36	369
4333.63	349
4333.91	369
4334.18	363
4334.45	375
4334.72	379
4334.99	371
4335.26	385
4335.53	369
4335.8	391
4336.07	401
4336.34	399
4336.61	405
4336.89	417
4337.16	405
4337.43	419
4337.7	423
4337.97	421
4338.24	421
4338.51	421
4338.78	445
4339.05	421
4339.32	419
4339.59	421
4339.86	437
4340.13	467
4340.4	443
4340.67	449
4340.94	461
4341.21	477
4341.49	505
4341.76	489
4342.03	487
4342.3	461
4342.57	467
4342.84	509
4343.11	505
4343.38	489
4343.65	537
4343.92	521
4344.19	541
4344.46	539
4344.73	561
4345	559
4345.27	561
4345.54	561
4345.81	563
4346.08	597
4346.35	609
4346.62	601
4346.89	585
4347.16	591
4347.43	635
4347.7	627
4347.97	643
4348.24	669
4348.51	657
4348.78	675
4349.05	671
4349.32	697
4349.59	705
4349.86	707
4350.13	709
4350.4	767
4350.67	721
4350.94	755
4351.21	743
4351.48	763
4351.75	781
4352.02	799
4352.29	805
4352.56	851
4352.83	835
4353.1	883
4353.37	873
4353.64	903
4353.91	915
4354.18	959
4354.45	991
4354.72	959
4354.99	995
4355.25	1023
4355.52	1085
4355.79	1049
4356.06	1087
4356.33	1135
4356.6	1145
4356.87	1193
4357.14	1231
4357.41	1307
4357.68	1265
4357.95	1291
4358.22	1409
4358.49	1429
4358.76	1517
4359.03	1483
4359.3	1527
4359.56	1587
4359.83	1659
4360.1	1687
4360.37	1731
4360.64	1845
4360.91	1905
4361.18	1977
4361.45	2031
4361.72	2049
4361.99	2225
4362.26	2297
4362.52	2487
4362.79	2469
4363.06	2667
4363.33	2745
4363.6	2871
4363.87	2999
4364.14	3153
4364.41	3311
4364.68	3373
4364.94	3567
4365.21	3711
4365.48	4013
4365.75	4151
4366.02	4287
4366.29	4569
4366.56	4801
4366.83	5137
4367.09	5307
4367.36	5581
4367.63	5955
4367.9	6249
4368.17	6449
4368.44	6805
4368.71	7147
4368.98	7487
4369.24	7791
4369.51	8325
4369.78	8677
4370.05	8785
4370.32	9205
4370.59	9421
4370.86	10015
4371.12	10255
4371.39	10483
4371.66	10457
4371.93	10845
4372.2	11237
4372.47	11283
4372.73	11315
4373	11165
4373.27	11389
4373.54	11517
4373.81	11481
4374.07	11191
4374.34	11073
4374.61	11007
4374.88	10851
4375.15	10813
4375.42	10345
4375.68	10113
4375.95	9739
4376.22	9533
4376.49	9445
4376.76	9003
4377.02	8741
4377.29	8419
4377.56	8169
4377.83	8077
4378.1	7805
4378.36	7409
4378.63	7187
4378.9	6877
4379.17	6897
4379.44	6583
4379.7	6399
4379.97	6045
4380.24	5935
4380.51	5925
4380.77	5741
4381.04	5547
4381.31	5327
4381.58	5239
4381.85	5157
4382.11	5031
4382.38	4981
4382.65	4793
4382.92	4693
4383.18	4557
4383.45	4489
4383.72	4657
4383.99	4535
4384.25	4357
4384.52	4381
4384.79	4391
4385.06	4469
4385.32	4243
4385.59	4269
4385.86	4197
4386.13	4261
4386.39	4311
4386.66	4151
4386.93	4213
4387.19	4331
4387.46	4297
4387.73	4355
4388	4353
4388.26	4449
4388.53	4411
4388.8	4559
4389.07	4539
4389.33	4631
4389.6	4661
4389.87	4781
4390.13	4865
4390.4	5023
4390.67	5199
4390.94	5213
4391.2	5267
4391.47	5367
4391.74	5575
4392	5877
4392.27	5911
4392.54	5913
4392.8	6277
4393.07	6515
4393.34	6649
4393.6	6739
4393.87	6985
4394.14	7385
4394.41	7773
4394.67	7923
4394.94	8205
4395.21	8589
4395.47	8901
4395.74	9263
4396.01	9733
4396.27	10091
4396.54	10545
4396.81	10659
4397.07	11307
4397.34	11795
4397.61	12229
4397.87	12491
4398.14	12709
4398.41	13321
4398.67	14113
4398.94	14657
4399.2	14687
4399.47	15127
4399.74	15835
4400	16547
4400.27	16775
4400.54	17085
4400.8	17491
4401.07	17749
4401.34	17873
4401.6	18333
4401.87	18749
4402.14	18713
4402.4	18517
4402.67	18703
4402.93	19073
4403.2	19167
4403.47	18489
4403.73	18421
4404	18223
4404.26	18391
4404.53	18247
4404.8	17613
4405.06	17015
4405.33	16817
4405.59	16673
4405.86	16207
4406.13	15725
4406.39	15461
4406.66	15045
4406.93	14619
4407.19	14187
4407.46	13805
4407.72	13199
4407.99	12873
4408.25	12439
4408.52	12023
4408.79	11655
4409.05	11205
4409.32	10855
4409.58	10527
4409.85	10087
4410.11	9943
4410.38	9531
4410.65	8975
4410.91	8695
4411.18	8625
4411.44	8383
4411.71	7935
4411.97	7557
4412.24	7305
4412.51	7221
4412.77	6965
4413.04	6695
4413.3	6429
4413.57	6203
4413.83	6053
4414.1	5817
4414.36	5601
4414.63	5559
4414.9	5311
4415.16	5083
4415.43	4917
4415.69	4821
4415.96	4643
4416.22	4499
4416.49	4309
4416.75	4305
4417.02	4187
4417.28	4077
4417.55	3899
4417.81	3809
4418.08	3639
4418.34	3729
4418.61	3511
4418.87	3415
4419.14	3295
4419.4	3293
4419.67	3161
4419.93	3023
4420.2	3017
4420.46	2941
4420.73	2801
4420.99	2825
4421.26	2775
4421.52	2689
4421.79	2581
4422.05	2571
4422.32	2443
4422.58	2461
4422.85	2359
4423.11	2351
4423.38	2249
4423.64	2251
4423.91	2215
4424.17	2193
4424.44	2087
4424.7	2107
4424.97	2059
4425.23	2057
4425.5	1957
4425.76	1877
4426.02	1901
4426.29	1887
4426.55	1843
4426.82	1821
4427.08	1721
4427.35	1753
4427.61	1705
4427.88	1655
4428.14	1629
4428.41	1663
4428.67	1593
4428.94	1539
4429.2	1519
4429.46	1567
4429.73	1543
4429.99	1497
4430.26	1457
4430.52	1441
4430.79	1445
4431.05	1399
4431.31	1335
4431.58	1351
4431.84	1341
4432.11	1325
4432.37	1269
4432.63	1279
4432.9	1267
4433.16	1235
4433.43	1229
4433.69	1249
4433.96	1195
4434.22	1205
4434.48	1141
4434.75	1161
4435.01	1181
4435.28	1127
4435.54	1137
4435.8	1079
4436.07	1079
4436.33	1083
4436.6	1101
4436.86	1021
4437.12	1035
4437.39	1031
4437.65	979
4437.92	1035
4438.18	961
4438.44	983
4438.71	959
4438.97	983
4439.23	959
4439.5	975
4439.76	917
4440.02	937
4440.29	931
4440.55	877
4440.82	905
4441.08	903
4441.34	883
4441.61	847
4441.87	893
4442.13	861
4442.4	857
4442.66	835
4442.92	813
4443.19	831
4443.45	847
4443.71	837
4443.98	793
4444.24	799
4444.5	819
4444.77	823
4445.03	793
4445.29	805
4445.56	793
4445.82	789
4446.08	771
4446.35	759
4446.61	757
4446.87	761
4447.14	765
4447.4	737
4447.66	765
4447.93	743
4448.19	743
4448.45	731
4448.72	733
4448.98	717
4449.24	713
4449.5	689
4449.77	673
4450.03	693
4450.29	691
4450.56	677
4450.82	683
4451.08	669
4451.34	659
4451.61	639
4451.87	683
4452.13	645
4452.4	631
4452.66	637
4452.92	647
4453.18	649
4453.45	651
4453.71	633
4453.97	611
4454.23	637
4454.5	619
4454.76	625
4455.02	605
4455.29	615
4455.55	601
4455.81	621
4456.07	611
4456.34	607
4456.6	601
4456.86	589
4457.12	595
4457.39	607
4457.65	579
4457.91	581
4458.17	603
4458.44	589
4458.7	591
4458.96	607
4459.22	561
4459.48	583
4459.75	587
4460.01	579
4460.27	603
4460.53	607
4460.8	581
4461.06	567
4461.32	567
4461.58	601
4461.84	585
4462.11	565
4462.37	575
4462.63	589
4462.89	567
4463.16	565
4463.42	569
4463.68	577
4463.94	577
4464.2	559
4464.47	575
4464.73	531
4464.99	573
4465.25	581
4465.51	569
4465.77	579
4466.04	557
4466.3	563
4466.56	557
4466.82	539
4467.08	561
4467.34	573
4467.61	567
4467.87	563
4468.13	577
4468.39	569
4468.65	587
4468.92	547
4469.18	581
4469.44	565
4469.7	589
4469.96	569
4470.22	577
4470.48	563
4470.75	557
4471.01	601
4471.27	571
4471.53	579
4471.79	579
4472.05	599
4472.32	563
4472.58	597
4472.84	601
4473.1	573
4473.36	555
4473.62	593
4473.88	597
4474.14	613
4474.41	607
4474.67	573
4474.93	585
4475.19	601
4475.45	579
4475.71	583
4475.97	581
4476.23	591
4476.5	567
4476.76	603
4477.02	575
4477.28	587
4477.54	591
4477.8	597
4478.06	561
4478.32	577
4478.58	583
4478.84	559
4479.1	565
4479.37	549
4479.63	543
4479.89	585
4480.15	563
4480.41	543
4480.67	549
4480.93	553
4481.19	561
4481.45	553
4481.71	557
4481.97	521
4482.23	561
4482.5	545
4482.76	539
4483.02	521
4483.28	543
4483.54	535
4483.8	537
4484.06	547
4484.32	525
4484.58	513
4484.84	547
4485.1	519
4485.36	551
4485.62	541
4485.88	529
4486.14	539
4486.4	525
4486.66	555
4486.93	557
4487.19	531
4487.44	547
4487.71	559
4487.97	537
4488.23	551
4488.49	537
4488.75	543
4489.01	553
4489.27	565
4489.53	545
4489.79	551
4490.05	505
4490.31	525
4490.57	553
4490.83	533
4491.09	549
4491.35	521
4491.61	529
4491.87	513
4492.13	519
4492.39	519
4492.65	521
4492.91	515
4493.17	551
4493.43	523
4493.69	483
4493.95	497
4494.21	505
4494.47	509
4494.73	513
4494.99	503
4495.25	491
4495.51	481
4495.77	487
4496.03	485
4496.29	513
4496.55	471
4496.81	511
4497.07	477
4497.33	475
4497.58	469
4497.85	467
4498.1	479
4498.36	461
4498.62	467
4498.88	459
4499.14	465
4499.4	461
4499.66	469
4499.92	443
4500.18	459
4500.44	451
4500.7	457
4500.96	435
4501.22	415
4501.48	447
4501.74	433
4502	421
4502.25	439
4502.51	413
4502.77	401
4503.03	441
4503.29	431
4503.55	389
4503.81	423
4504.07	421
4504.33	403
4504.59	411
4504.85	421
4505.11	397
4505.37	417
4505.63	405
4505.88	415
4506.14	417
4506.4	417
4506.66	427
4506.92	431
4507.18	405
4507.44	435
4507.7	429
4507.96	437
4508.22	447
4508.47	451
4508.73	435
4508.99	447
4509.25	441
4509.51	443
4509.77	471
4510.03	467
4510.29	465
4510.54	495
4510.8	445
4511.06	461
4511.32	483
4511.58	481
4511.84	505
4512.1	525
4512.35	491
4512.61	479
4512.87	495
4513.13	477
4513.39	509
4513.65	499
4513.91	491
4514.16	517
4514.42	501
4514.68	529
4514.94	519
4515.2	511
4515.46	513
4515.72	509
4515.97	523
4516.23	527
4516.49	497
4516.75	517
4517.01	523
4517.26	505
4517.52	531
4517.78	525
4518.04	495
4518.3	503
4518.56	475
4518.81	503
4519.07	503
4519.33	471
4519.59	489
4519.85	471
4520.1	487
4520.36	469
4520.62	469
4520.88	453
4521.14	489
4521.39	463
4521.65	455
4521.91	467
4522.17	443
4522.43	445
4522.68	441
4522.94	459
4523.2	451
4523.46	455
4523.72	425
4523.97	461
4524.23	451
4524.49	449
4524.75	411
4525	439
4525.26	441
4525.52	445
4525.78	431
4526.03	439
4526.29	451
4526.55	443
4526.81	437
4527.07	445
4527.32	419
4527.58	425
4527.84	419
4528.1	431
4528.35	413
4528.61	419
4528.87	407
4529.13	405
4529.38	407
4529.64	417
4529.9	429
4530.15	421
4530.41	407
4530.67	391
4530.93	381
4531.18	383
4531.44	377
4531.7	385
4531.96	377
4532.21	391
4532.47	419
4532.73	381
4532.98	369
4533.24	395
4533.5	391
4533.76	377
4534.01	375
4534.27	367
