#Acq. time (s)=	1e-005
#Accumulations=	1
#Range=	Off
#Autofocus=	Off
#AutoExposure=	Off
#Spike filter=	Multiple accum.
#Delay time (s)=	0
#Binning=	1
#Readout mode=	Signal
#DeNoise=	Off
#ICS correction=	Off
#Dark correction=	Off
#Inst. Process=	Off
#Detector Gain=	Best Dynamic Range
#Detector ADC=	45 kHz       
#Detector temperature (°C)=	-60.1
#Instrument=	LabRAM HR Evol
#Detector=	Syncerity
#Objective=	x50Lwd
#Grating=	1800 gr/mm
#Laser (nm)=	532 
#Spectro (cm-¹)=	4400
#ND Filter=	10%
#Hole=	100.021
#StageXY=	Marzhauser
#StageZ=	Marzhauser
#X (µm)=	0
#Y (µm)=	0
#Z (µm)=	67.2
#Full time(s)=	1
#Project=	A
#Sample=	B
#Site=	C
#Title=	G_P00_51
#Remark=	
#Date=	07.12.2021 15:21
#Acquired=	07.12.2021 15:21:17
#AxisType[0]=Intens
#AxisUnit[0]=Cnt
#AxisType[1]=Spectr
#AxisUnit[1]=1/cm
4261.72	257
4262	257
4262.27	211
4262.55	221
4262.82	229
4263.1	243
4263.37	223
4263.65	245
4263.93	235
4264.2	241
4264.48	241
4264.75	223
4265.03	225
4265.3	251
4265.58	257
4265.86	239
4266.13	225
4266.41	237
4266.68	261
4266.96	231
4267.23	235
4267.51	225
4267.78	257
4268.06	241
4268.34	245
4268.61	237
4268.89	249
4269.16	237
4269.44	227
4269.71	235
4269.99	233
4270.26	241
4270.54	221
4270.81	253
4271.09	241
4271.36	245
4271.64	251
4271.91	255
4272.19	261
4272.47	237
4272.74	227
4273.02	245
4273.29	249
4273.57	225
4273.84	249
4274.12	253
4274.39	247
4274.67	245
4274.94	233
4275.22	237
4275.49	259
4275.77	257
4276.04	251
4276.32	253
4276.59	265
4276.86	253
4277.14	267
4277.42	285
4277.69	263
4277.96	261
4278.24	253
4278.51	269
4278.79	269
4279.06	279
4279.34	255
4279.61	257
4279.89	261
4280.16	249
4280.44	263
4280.71	261
4280.99	275
4281.26	251
4281.54	267
4281.81	253
4282.08	283
4282.36	279
4282.63	243
4282.91	263
4283.18	281
4283.46	281
4283.73	255
4284.01	275
4284.28	299
4284.55	273
4284.83	285
4285.1	269
4285.38	287
4285.65	273
4285.93	267
4286.2	269
4286.47	281
4286.75	289
4287.02	277
4287.3	285
4287.57	279
4287.85	299
4288.12	295
4288.39	289
4288.67	285
4288.94	309
4289.22	263
4289.49	281
4289.76	273
4290.04	291
4290.31	291
4290.59	283
4290.86	289
4291.13	287
4291.41	307
4291.68	289
4291.95	313
4292.23	299
4292.5	303
4292.78	311
4293.05	303
4293.32	321
4293.6	301
4293.87	299
4294.15	299
4294.42	293
4294.69	285
4294.97	299
4295.24	299
4295.51	315
4295.79	323
4296.06	317
4296.33	301
4296.61	311
4296.88	317
4297.15	345
4297.43	309
4297.7	331
4297.98	337
4298.25	317
4298.52	339
4298.8	323
4299.07	323
4299.34	325
4299.62	325
4299.89	329
4300.16	335
4300.43	335
4300.71	333
4300.98	333
4301.25	333
4301.53	347
4301.8	341
4302.07	339
4302.35	353
4302.62	357
4302.89	361
4303.17	337
4303.44	371
4303.71	349
4303.99	345
4304.26	367
4304.53	373
4304.81	355
4305.08	341
4305.35	345
4305.62	369
4305.9	391
4306.17	367
4306.44	355
4306.72	381
4306.99	381
4307.26	371
4307.53	385
4307.81	375
4308.08	399
4308.35	381
4308.62	409
4308.9	381
4309.17	409
4309.44	393
4309.72	399
4309.99	433
4310.26	407
4310.53	423
4310.81	425
4311.08	439
4311.35	423
4311.62	421
4311.9	425
4312.17	433
4312.44	443
4312.71	421
4312.98	437
4313.26	451
4313.53	459
4313.8	451
4314.08	449
4314.35	453
4314.62	471
4314.89	467
4315.16	471
4315.44	465
4315.71	465
4315.98	477
4316.25	481
4316.53	509
4316.8	495
4317.07	475
4317.34	517
4317.61	505
4317.89	511
4318.16	529
4318.43	515
4318.7	501
4318.97	531
4319.25	527
4319.52	547
4319.79	543
4320.06	517
4320.33	529
4320.61	555
4320.88	569
4321.15	559
4321.42	574
4321.69	589
4321.96	587
4322.24	593
4322.51	587
4322.78	621
4323.05	599
4323.32	609
4323.6	599
4323.87	635
4324.14	627
4324.41	653
4324.68	657
4324.95	693
4325.22	649
4325.5	685
4325.77	627
4326.04	677
4326.31	681
4326.58	699
4326.85	697
4327.13	687
4327.4	727
4327.67	737
4327.94	753
4328.21	757
4328.48	715
4328.75	795
4329.02	755
4329.3	777
4329.57	797
4329.84	809
4330.11	813
4330.38	823
4330.65	857
4330.92	855
4331.19	861
4331.47	867
4331.74	863
4332.01	935
4332.28	921
4332.55	887
4332.82	897
4333.09	945
4333.36	969
4333.63	959
4333.91	981
4334.18	993
4334.45	993
4334.72	1021
4334.99	1043
4335.26	1057
4335.53	1093
4335.8	1107
4336.07	1057
4336.34	1111
4336.61	1155
4336.89	1133
4337.16	1139
4337.43	1179
4337.7	1223
4337.97	1207
4338.24	1253
4338.51	1253
4338.78	1307
4339.05	1333
4339.32	1299
4339.59	1347
4339.86	1351
4340.13	1457
4340.4	1425
4340.67	1429
4340.94	1441
4341.21	1547
4341.49	1597
4341.76	1617
4342.03	1561
4342.3	1613
4342.57	1683
4342.84	1749
4343.11	1733
4343.38	1791
4343.65	1841
4343.92	1885
4344.19	1843
4344.46	1921
4344.73	2057
4345	2043
4345.27	2079
4345.54	2199
4345.81	2215
4346.08	2307
4346.35	2267
4346.62	2317
4346.89	2365
4347.16	2491
4347.43	2609
4347.7	2631
4347.97	2737
4348.24	2841
4348.51	2943
4348.78	2991
4349.05	3055
4349.32	3157
4349.59	3289
4349.86	3435
4350.13	3533
4350.4	3613
4350.67	3737
4350.94	3903
4351.21	4087
4351.48	4263
4351.75	4381
4352.02	4441
4352.29	4663
4352.56	4907
4352.83	5205
4353.1	5435
4353.37	5523
4353.64	5663
4353.91	6135
4354.18	6523
4354.45	6615
4354.72	6989
4354.99	7231
4355.25	7635
4355.52	8095
4355.79	8395
4356.06	8985
4356.33	9299
4356.6	9777
4356.87	10375
4357.14	10951
4357.41	11423
4357.68	12075
4357.95	12491
4358.22	13285
4358.49	14175
4358.76	14819
4359.03	15339
4359.3	15915
4359.56	16963
4359.83	18233
4360.1	18979
4360.37	19315
4360.64	20159
4360.91	21365
4361.18	22337
4361.45	22989
4361.72	23551
4361.99	24253
4362.26	25141
4362.52	25453
4362.79	26085
4363.06	26809
4363.33	26561
4363.6	26649
4363.87	26771
4364.14	27261
4364.41	26925
4364.68	26089
4364.94	25847
4365.21	25921
4365.48	25675
4365.75	24781
4366.02	23883
4366.29	23551
4366.56	23145
4366.83	22397
4367.09	21363
4367.36	20813
4367.63	20029
4367.9	19515
4368.17	18813
4368.44	18171
4368.71	17525
4368.98	16705
4369.24	16113
4369.51	15641
4369.78	15363
4370.05	14783
4370.32	14131
4370.59	13779
4370.86	13263
4371.12	13101
4371.39	12569
4371.66	12119
4371.93	11657
4372.2	11471
4372.47	11277
4372.73	11009
4373	10621
4373.27	10495
4373.54	10479
4373.81	10261
4374.07	9997
4374.34	9669
4374.61	9541
4374.88	9597
4375.15	9393
4375.42	9383
4375.68	9279
4375.95	9171
4376.22	9173
4376.49	9103
4376.76	9341
4377.02	9309
4377.29	9023
4377.56	9031
4377.83	9331
4378.1	9455
4378.36	9247
4378.63	9175
4378.9	9475
4379.17	9759
4379.44	9711
4379.7	9713
4379.97	9845
4380.24	10073
4380.51	10337
4380.77	10539
4381.04	10657
4381.31	11039
4381.58	11217
4381.85	11345
4382.11	11607
4382.38	11985
4382.65	12411
4382.92	12489
4383.18	12827
4383.45	13563
4383.72	14071
4383.99	14071
4384.25	14551
4384.52	15223
4384.79	16141
4385.06	16665
4385.32	16771
4385.59	17371
4385.86	18247
4386.13	19253
4386.39	19853
4386.66	20495
4386.93	21257
4387.19	22045
4387.46	23163
4387.73	24263
4388	25027
4388.26	26161
4388.53	26895
4388.8	28099
4389.07	29217
4389.33	30667
4389.6	31401
4389.87	32235
4390.13	33095
4390.4	34783
4390.67	36245
4390.94	36697
4391.2	36971
4391.47	38105
4391.74	39823
4392	40543
4392.27	40393
4392.54	40523
4392.8	41337
4393.07	42405
4393.34	41835
4393.6	41857
4393.87	41599
4394.14	41871
4394.41	41653
4394.67	41077
4394.94	40955
4395.21	40625
4395.47	39389
4395.74	38335
4396.01	37915
4396.27	37543
4396.54	36421
4396.81	34493
4397.07	33757
4397.34	33607
4397.61	32963
4397.87	31045
4398.14	29899
4398.41	29423
4398.67	28711
4398.94	27647
4399.2	26313
4399.47	25537
4399.74	24749
4400	23965
4400.27	22877
4400.54	22219
4400.8	21471
4401.07	20451
4401.34	19493
4401.6	19193
4401.87	18761
4402.14	17703
4402.4	16951
4402.67	16309
4402.93	16055
4403.2	15611
4403.47	14937
4403.73	14075
4404	13751
4404.26	13551
4404.53	13105
4404.8	12669
4405.06	11943
4405.33	11663
4405.59	11519
4405.86	11055
4406.13	10637
4406.39	10161
4406.66	9917
4406.93	9671
4407.19	9319
4407.46	9127
4407.72	8865
4407.99	8513
4408.25	8249
4408.52	8061
4408.79	7857
4409.05	7693
4409.32	7415
4409.58	7025
4409.85	7023
4410.11	6913
4410.38	6723
4410.65	6327
4410.91	6247
4411.18	6315
4411.44	6121
4411.71	5875
4411.97	5637
4412.24	5535
4412.51	5581
4412.77	5399
4413.04	5201
4413.3	5133
4413.57	5051
4413.83	4909
4414.1	4699
4414.36	4743
4414.63	4627
4414.9	4557
4415.16	4289
4415.43	4219
4415.69	4293
4415.96	4217
4416.22	4019
4416.49	3939
4416.75	3973
4417.02	3937
4417.28	3847
4417.55	3759
4417.81	3727
4418.08	3621
4418.34	3589
4418.61	3505
4418.87	3537
4419.14	3371
4419.4	3343
4419.67	3275
4419.93	3229
4420.2	3259
4420.46	3209
4420.73	3015
4420.99	3071
4421.26	3013
4421.52	3017
4421.79	2859
4422.05	2835
4422.32	2797
4422.58	2773
4422.85	2797
4423.11	2667
4423.38	2625
4423.64	2655
4423.91	2677
4424.17	2575
4424.44	2507
4424.7	2451
4424.97	2519
4425.23	2531
4425.5	2381
4425.76	2329
4426.02	2277
4426.29	2305
4426.55	2285
4426.82	2253
4427.08	2239
4427.35	2163
4427.61	2133
4427.88	2115
4428.14	2085
4428.41	2073
4428.67	2095
4428.94	2015
4429.2	1961
4429.46	2041
4429.73	1971
4429.99	1943
4430.26	1907
4430.52	1883
4430.79	1887
4431.05	1889
4431.31	1853
4431.58	1815
4431.84	1835
4432.11	1827
4432.37	1743
4432.63	1753
4432.9	1761
4433.16	1707
4433.43	1721
4433.69	1741
4433.96	1727
4434.22	1685
4434.48	1635
4434.75	1637
4435.01	1645
4435.28	1643
4435.54	1663
4435.8	1615
4436.07	1575
4436.33	1609
4436.6	1619
4436.86	1543
4437.12	1525
4437.39	1515
4437.65	1505
4437.92	1481
4438.18	1487
4438.44	1463
4438.71	1451
4438.97	1437
4439.23	1465
4439.5	1411
4439.76	1459
4440.02	1439
4440.29	1415
4440.55	1371
4440.82	1377
4441.08	1399
4441.34	1359
4441.61	1347
4441.87	1385
4442.13	1313
4442.4	1331
4442.66	1331
4442.92	1293
4443.19	1311
4443.45	1319
4443.71	1239
4443.98	1227
4444.24	1295
4444.5	1279
4444.77	1269
4445.03	1251
4445.29	1249
4445.56	1251
4445.82	1241
4446.08	1173
4446.35	1241
4446.61	1221
4446.87	1191
4447.14	1139
4447.4	1213
4447.66	1179
4447.93	1157
4448.19	1161
4448.45	1119
4448.72	1203
4448.98	1181
4449.24	1145
4449.5	1129
4449.77	1161
4450.03	1139
4450.29	1161
4450.56	1147
4450.82	1143
4451.08	1173
4451.34	1147
4451.61	1163
4451.87	1145
4452.13	1125
4452.4	1145
4452.66	1161
4452.92	1113
4453.18	1151
4453.45	1185
4453.71	1135
4453.97	1145
4454.23	1133
4454.5	1113
4454.76	1157
4455.02	1085
4455.29	1069
4455.55	1043
4455.81	1071
4456.07	1043
4456.34	1065
4456.6	1073
4456.86	1087
4457.12	1119
4457.39	1085
4457.65	1065
4457.91	1065
4458.17	1109
4458.44	1101
4458.7	1027
4458.96	1071
4459.22	1081
4459.48	1077
4459.75	1053
4460.01	1095
4460.27	1127
4460.53	1127
4460.8	1077
4461.06	1093
4461.32	1037
4461.58	1105
4461.84	1095
4462.11	1077
4462.37	1071
4462.63	1139
4462.89	1119
4463.16	1091
4463.42	1117
4463.68	1089
4463.94	1117
4464.2	1091
4464.47	1131
4464.73	1149
4464.99	1101
4465.25	1109
4465.51	1109
4465.77	1123
4466.04	1123
4466.3	1125
4466.56	1139
4466.82	1111
4467.08	1165
4467.34	1075
4467.61	1103
4467.87	1093
4468.13	1107
4468.39	1125
4468.65	1119
4468.92	1099
4469.18	1063
4469.44	1085
4469.7	1123
4469.96	1055
4470.22	1071
4470.48	1049
4470.75	1021
4471.01	1039
4471.27	1051
4471.53	1049
4471.79	1035
4472.05	1035
4472.32	1049
4472.58	1039
4472.84	1033
4473.1	1071
4473.36	1003
4473.62	979
4473.88	1037
4474.14	1001
4474.41	1031
4474.67	983
4474.93	1005
4475.19	997
4475.45	989
4475.71	1003
4475.97	993
4476.23	987
4476.5	1001
4476.76	1021
4477.02	1029
4477.28	1023
4477.54	1007
4477.8	1031
4478.06	993
4478.32	993
4478.58	1021
4478.84	1013
4479.1	1035
4479.37	1007
4479.63	969
4479.89	1053
4480.15	997
4480.41	985
4480.67	1033
4480.93	1003
4481.19	1045
4481.45	1001
4481.71	1019
4481.97	1017
4482.23	1031
4482.5	1025
4482.76	999
4483.02	1019
4483.28	997
4483.54	1041
4483.8	967
4484.06	997
4484.32	961
4484.58	919
4484.84	937
4485.1	955
4485.36	993
4485.62	915
4485.88	943
4486.14	967
4486.4	909
4486.66	953
4486.93	881
4487.19	903
4487.44	919
4487.71	897
4487.97	891
4488.23	893
4488.49	891
4488.75	885
4489.01	863
4489.27	863
4489.53	823
4489.79	851
4490.05	799
4490.31	821
4490.57	839
4490.83	835
4491.09	797
4491.35	793
4491.61	829
4491.87	767
4492.13	807
4492.39	785
4492.65	787
4492.91	749
4493.17	777
4493.43	811
4493.69	771
4493.95	773
4494.21	739
4494.47	747
4494.73	795
4494.99	735
4495.25	775
4495.51	781
4495.77	765
4496.03	743
4496.29	775
4496.55	795
4496.81	799
4497.07	785
4497.33	797
4497.58	785
4497.85	819
4498.1	777
4498.36	781
4498.62	843
4498.88	803
4499.14	829
4499.4	829
4499.66	871
4499.92	853
4500.18	881
4500.44	843
4500.7	887
4500.96	863
4501.22	907
4501.48	941
4501.74	953
4502	949
4502.25	921
4502.51	909
4502.77	905
4503.03	951
4503.29	965
4503.55	971
4503.81	957
4504.07	927
4504.33	963
4504.59	965
4504.85	973
4505.11	969
4505.37	985
4505.63	905
4505.88	931
4506.14	1009
4506.4	981
4506.66	965
4506.92	929
4507.18	949
4507.44	951
4507.7	913
4507.96	909
4508.22	923
4508.47	885
4508.73	869
4508.99	897
4509.25	879
4509.51	909
4509.77	877
4510.03	867
4510.29	859
4510.54	857
4510.8	849
4511.06	811
4511.32	789
4511.58	841
4511.84	789
4512.1	839
4512.35	787
4512.61	837
4512.87	831
4513.13	773
4513.39	781
4513.65	793
4513.91	789
4514.16	765
4514.42	797
4514.68	777
4514.94	767
4515.2	763
4515.46	781
4515.72	767
4515.97	773
4516.23	773
4516.49	755
4516.75	765
4517.01	773
4517.26	751
4517.52	761
4517.78	727
4518.04	733
4518.3	739
4518.56	763
4518.81	717
4519.07	745
4519.33	713
4519.59	689
4519.85	731
4520.1	715
4520.36	701
4520.62	719
4520.88	697
4521.14	731
4521.39	697
4521.65	701
4521.91	723
4522.17	677
4522.43	681
4522.68	695
4522.94	681
4523.2	669
4523.46	673
4523.72	655
4523.97	673
4524.23	695
4524.49	697
4524.75	663
4525	665
4525.26	679
4525.52	681
4525.78	671
4526.03	679
4526.29	669
4526.55	663
4526.81	681
4527.07	693
4527.32	681
4527.58	699
4527.84	657
4528.1	687
4528.35	665
4528.61	701
4528.87	665
4529.13	701
4529.38	691
4529.64	677
4529.9	707
4530.15	727
4530.41	677
4530.67	713
4530.93	721
4531.18	701
4531.44	709
4531.7	727
4531.96	697
4532.21	735
4532.47	735
4532.73	773
4532.98	739
4533.24	735
4533.5	775
4533.76	767
4534.01	739
4534.27	759
