#Acq. time (s)=	0.5
#Accumulations=	2
#Range=	Off
#Autofocus=	Off
#AutoExposure=	Off
#Spike filter=	Multiple accum.
#Delay time (s)=	0
#Binning=	1
#Readout mode=	Signal
#DeNoise=	Off
#ICS correction=	Off
#Dark correction=	Off
#Inst. Process=	Off
#Detector Gain=	Best Dynamic Range
#Detector ADC=	45 kHz       
#Detector temperature (°C)=	-60.1
#Instrument=	LabRAM HR Evol
#Detector=	Syncerity
#Objective=	x50Lwd
#Grating=	1800 gr/mm
#Laser (nm)=	532 
#Spectro (cm-¹)=	4400
#ND Filter=	0.01%
#Hole=	100.021
#StageXY=	Marzhauser
#StageZ=	Marzhauser
#X (µm)=	0
#Y (µm)=	0
#Z (µm)=	83.3
#Full time(s)=	5
#Project=	A
#Sample=	B
#Site=	C
#Title=	G_P00_55
#Remark=	
#Date=	16.12.2021 13:41
#Acquired=	16.12.2021 13:41:39
#AxisType[0]=Intens
#AxisUnit[0]=Cnt
#AxisType[1]=Spectr
#AxisUnit[1]=1/cm
4261.72	331
4262	331
4262.27	331
4262.55	331
4262.82	327
4263.1	331
4263.37	315
4263.65	335
4263.93	319
4264.2	323
4264.48	335
4264.75	325
4265.03	323
4265.3	335
4265.58	325
4265.86	331
4266.13	331
4266.41	331
4266.68	315
4266.96	339
4267.23	311
4267.51	327
4267.78	331
4268.06	329
4268.34	321
4268.61	309
4268.89	327
4269.16	365
4269.44	329
4269.71	321
4269.99	325
4270.26	325
4270.54	359
4270.81	321
4271.09	333
4271.36	351
4271.64	329
4271.91	345
4272.19	325
4272.47	329
4272.74	329
4273.02	329
4273.29	331
4273.57	327
4273.84	333
4274.12	313
4274.39	331
4274.67	351
4274.94	327
4275.22	315
4275.49	317
4275.77	331
4276.04	337
4276.32	307
4276.59	323
4276.86	303
4277.14	359
4277.42	339
4277.69	325
4277.96	327
4278.24	337
4278.51	343
4278.79	323
4279.06	341
4279.34	337
4279.61	315
4279.89	345
4280.16	335
4280.44	331
4280.71	335
4280.99	325
4281.26	345
4281.54	335
4281.81	325
4282.08	341
4282.36	339
4282.63	351
4282.91	349
4283.18	339
4283.46	335
4283.73	337
4284.01	339
4284.28	353
4284.55	339
4284.83	339
4285.1	321
4285.38	337
4285.65	339
4285.93	345
4286.2	347
4286.47	333
4286.75	341
4287.02	351
4287.3	329
4287.57	353
4287.85	333
4288.12	325
4288.39	339
4288.67	351
4288.94	347
4289.22	333
4289.49	349
4289.76	339
4290.04	347
4290.31	345
4290.59	351
4290.86	363
4291.13	365
4291.41	335
4291.68	347
4291.95	343
4292.23	365
4292.5	359
4292.78	365
4293.05	359
4293.32	363
4293.6	327
4293.87	349
4294.15	355
4294.42	343
4294.69	347
4294.97	359
4295.24	361
4295.51	365
4295.79	369
4296.06	353
4296.33	375
4296.61	337
4296.88	361
4297.15	349
4297.43	365
4297.7	347
4297.98	375
4298.25	367
4298.52	363
4298.8	359
4299.07	349
4299.34	351
4299.62	381
4299.89	363
4300.16	385
4300.43	341
4300.71	355
4300.98	367
4301.25	375
4301.53	369
4301.8	365
4302.07	375
4302.35	385
4302.62	387
4302.89	351
4303.17	363
4303.44	381
4303.71	397
4303.99	393
4304.26	365
4304.53	391
4304.81	381
4305.08	395
4305.35	373
4305.62	389
4305.9	381
4306.17	391
4306.44	371
4306.72	393
4306.99	397
4307.26	385
4307.53	375
4307.81	401
4308.08	397
4308.35	405
4308.62	375
4308.9	393
4309.17	395
4309.44	397
4309.72	399
4309.99	373
4310.26	403
4310.53	381
4310.81	415
4311.08	413
4311.35	391
4311.62	411
4311.9	419
4312.17	413
4312.44	413
4312.71	419
4312.98	399
4313.26	375
4313.53	407
4313.8	403
4314.08	405
4314.35	383
4314.62	413
4314.89	407
4315.16	427
4315.44	423
4315.71	423
4315.98	431
4316.25	435
4316.53	439
4316.8	437
4317.07	427
4317.34	403
4317.61	439
4317.89	413
4318.16	453
4318.43	435
4318.7	421
4318.97	433
4319.25	451
4319.52	459
4319.79	441
4320.06	447
4320.33	429
4320.61	447
4320.88	461
4321.15	465
4321.42	472
4321.69	467
4321.96	455
4322.24	463
4322.51	447
4322.78	459
4323.05	469
4323.32	479
4323.6	457
4323.87	485
4324.14	471
4324.41	479
4324.68	473
4324.95	471
4325.22	483
4325.5	483
4325.77	487
4326.04	495
4326.31	497
4326.58	501
4326.85	491
4327.13	493
4327.4	521
4327.67	527
4327.94	521
4328.21	523
4328.48	513
4328.75	505
4329.02	499
4329.3	505
4329.57	511
4329.84	529
4330.11	519
4330.38	535
4330.65	545
4330.92	531
4331.19	533
4331.47	531
4331.74	533
4332.01	539
4332.28	547
4332.55	513
4332.82	547
4333.09	529
4333.36	583
4333.63	541
4333.91	531
4334.18	605
4334.45	595
4334.72	573
4334.99	561
4335.26	579
4335.53	591
4335.8	607
4336.07	573
4336.34	597
4336.61	587
4336.89	637
4337.16	603
4337.43	621
4337.7	631
4337.97	629
4338.24	619
4338.51	655
4338.78	645
4339.05	635
4339.32	617
4339.59	613
4339.86	631
4340.13	669
4340.4	667
4340.67	637
4340.94	639
4341.21	681
4341.49	689
4341.76	667
4342.03	659
4342.3	703
4342.57	717
4342.84	711
4343.11	717
4343.38	721
4343.65	719
4343.92	733
4344.19	725
4344.46	757
4344.73	723
4345	719
4345.27	729
4345.54	787
4345.81	797
4346.08	765
4346.35	751
4346.62	737
4346.89	787
4347.16	795
4347.43	795
4347.7	801
4347.97	811
4348.24	833
4348.51	847
4348.78	835
4349.05	827
4349.32	853
4349.59	861
4349.86	861
4350.13	887
4350.4	907
4350.67	881
4350.94	909
4351.21	903
4351.48	945
4351.75	927
4352.02	933
4352.29	947
4352.56	973
4352.83	981
4353.1	959
4353.37	949
4353.64	989
4353.91	1045
4354.18	1019
4354.45	1053
4354.72	1057
4354.99	1065
4355.25	1049
4355.52	1105
4355.79	1069
4356.06	1107
4356.33	1163
4356.6	1137
4356.87	1103
4357.14	1171
4357.41	1197
4357.68	1187
4357.95	1203
4358.22	1229
4358.49	1259
4358.76	1247
4359.03	1233
4359.3	1303
4359.56	1343
4359.83	1335
4360.1	1347
4360.37	1369
4360.64	1407
4360.91	1461
4361.18	1435
4361.45	1393
4361.72	1461
4361.99	1489
4362.26	1477
4362.52	1565
4362.79	1607
4363.06	1543
4363.33	1613
4363.6	1635
4363.87	1687
4364.14	1699
4364.41	1707
4364.68	1735
4364.94	1769
4365.21	1839
4365.48	1857
4365.75	1863
4366.02	1891
4366.29	1985
4366.56	2005
4366.83	2029
4367.09	1949
4367.36	2089
4367.63	2141
4367.9	2201
4368.17	2231
4368.44	2249
4368.71	2341
4368.98	2413
4369.24	2395
4369.51	2507
4369.78	2597
4370.05	2661
4370.32	2567
4370.59	2719
4370.86	2885
4371.12	2983
4371.39	2921
4371.66	2955
4371.93	3187
4372.2	3361
4372.47	3325
4372.73	3323
4373	3485
4373.27	3687
4373.54	3857
4373.81	3849
4374.07	4005
4374.34	4111
4374.61	4291
4374.88	4407
4375.15	4621
4375.42	4749
4375.68	4885
4375.95	4995
4376.22	5209
4376.49	5575
4376.76	5793
4377.02	5843
4377.29	6023
4377.56	6565
4377.83	6925
4378.1	7045
4378.36	7179
4378.63	7537
4378.9	8119
4379.17	8609
4379.44	8711
4379.7	8933
4379.97	9741
4380.24	10143
4380.51	10651
4380.77	11131
4381.04	11887
4381.31	12311
4381.58	12879
4381.85	13661
4382.11	14535
4382.38	15199
4382.65	15807
4382.92	16535
4383.18	17857
4383.45	19149
4383.72	19823
4383.99	20019
4384.25	21253
4384.52	22937
4384.79	24541
4385.06	24631
4385.32	25343
4385.59	26759
4385.86	28439
4386.13	29295
4386.39	29695
4386.66	30363
4386.93	31505
4387.19	32889
4387.46	33339
4387.73	33641
4388	33505
4388.26	34137
4388.53	34209
4388.8	34283
4389.07	34635
4389.33	34329
4389.6	33065
4389.87	32373
4390.13	32679
4390.4	32983
4390.67	31375
4390.94	29459
4391.2	28719
4391.47	28973
4391.74	28415
4392	26623
4392.27	25091
4392.54	24555
4392.8	24233
4393.07	23623
4393.34	22035
4393.6	21065
4393.87	20791
4394.14	20033
4394.41	19235
4394.67	18703
4394.94	18139
4395.21	17193
4395.47	16401
4395.74	16247
4396.01	16329
4396.27	15573
4396.54	14655
4396.81	14093
4397.07	14447
4397.34	14345
4397.61	13671
4397.87	12901
4398.14	12847
4398.41	13053
4398.67	12765
4398.94	12217
4399.2	11949
4399.47	12055
4399.74	12229
4400	11843
4400.27	11681
4400.54	11693
4400.8	11677
4401.07	11571
4401.34	11605
4401.6	11833
4401.87	11557
4402.14	11347
4402.4	11391
4402.67	11689
4402.93	12021
4403.2	11991
4403.47	11705
4403.73	11929
4404	12197
4404.26	12595
4404.53	12535
4404.8	12543
4405.06	12765
4405.33	13413
4405.59	13935
4405.86	13739
4406.13	13817
4406.39	14095
4406.66	14679
4406.93	15149
4407.19	15619
4407.46	16039
4407.72	16281
4407.99	16507
4408.25	17373
4408.52	18117
4408.79	18943
4409.05	18865
4409.32	19485
4409.58	20657
4409.85	22135
4410.11	22661
4410.38	22569
4410.65	23597
4410.91	25425
4411.18	26937
4411.44	27313
4411.71	27547
4411.97	29385
4412.24	31197
4412.51	31909
4412.77	33171
4413.04	34403
4413.3	36153
4413.57	36881
4413.83	38421
4414.1	40505
4414.36	41975
4414.63	42297
4414.9	43081
4415.16	45375
4415.43	47955
4415.69	48765
4415.96	48297
4416.22	48647
4416.49	51359
4416.75	53899
4417.02	53205
4417.28	52099
4417.55	52923
4417.81	54935
4418.08	55057
4418.34	54455
4418.61	53451
4418.87	53485
4419.14	53325
4419.4	52963
4419.67	52153
4419.93	50893
4420.2	49843
4420.46	48751
4420.73	47775
4420.99	47227
4421.26	45981
4421.52	43925
4421.79	41957
4422.05	40931
4422.32	40963
4422.58	39733
4422.85	37005
4423.11	35081
4423.38	34929
4423.64	34681
4423.91	32973
4424.17	30843
4424.44	29793
4424.7	29295
4424.97	28769
4425.23	27351
4425.5	25903
4425.76	25095
4426.02	24159
4426.29	23379
4426.55	22641
4426.82	21841
4427.08	21329
4427.35	19949
4427.61	19263
4427.88	18995
4428.14	18699
4428.41	17843
4428.67	16539
4428.94	16075
4429.2	16409
4429.46	15873
4429.73	14703
4429.99	13971
4430.26	13953
4430.52	13761
4430.79	13371
4431.05	12563
4431.31	11987
4431.58	11991
4431.84	11583
4432.11	11155
4432.37	10683
4432.63	10449
4432.9	10111
4433.16	9857
4433.43	9647
4433.69	9565
4433.96	9171
4434.22	8795
4434.48	8429
4434.75	8489
4435.01	8401
4435.28	8025
4435.54	7731
4435.8	7513
4436.07	7623
4436.33	7373
4436.6	7095
4436.86	6847
4437.12	6683
4437.39	6699
4437.65	6533
4437.92	6313
4438.18	6043
4438.44	6071
4438.71	6017
4438.97	5855
4439.23	5743
4439.5	5653
4439.76	5419
4440.02	5335
4440.29	5265
4440.55	5301
4440.82	5171
4441.08	4949
4441.34	4805
4441.61	4949
4441.87	4939
4442.13	4807
4442.4	4529
4442.66	4405
4442.92	4407
4443.19	4555
4443.45	4311
4443.71	4075
4443.98	4185
4444.24	4165
4444.5	4115
4444.77	3943
4445.03	3935
4445.29	3889
4445.56	3785
4445.82	3779
4446.08	3717
4446.35	3763
4446.61	3571
4446.87	3409
4447.14	3457
4447.4	3511
4447.66	3495
4447.93	3341
4448.19	3237
4448.45	3249
4448.72	3257
4448.98	3289
4449.24	3071
4449.5	2917
4449.77	3099
4450.03	3063
4450.29	2943
4450.56	2923
4450.82	2843
4451.08	2819
4451.34	2829
4451.61	2797
4451.87	2727
4452.13	2687
4452.4	2665
4452.66	2655
4452.92	2599
4453.18	2589
4453.45	2497
4453.71	2503
4453.97	2417
4454.23	2479
4454.5	2497
4454.76	2407
4455.02	2323
4455.29	2367
4455.55	2427
4455.81	2341
4456.07	2323
4456.34	2213
4456.6	2251
4456.86	2321
4457.12	2273
4457.39	2151
4457.65	2181
4457.91	2165
4458.17	2147
4458.44	2177
4458.7	2127
4458.96	2129
4459.22	2071
4459.48	2007
4459.75	2017
4460.01	2073
4460.27	2087
4460.53	1975
4460.8	1923
4461.06	1947
4461.32	1977
4461.58	1939
4461.84	1839
4462.11	1857
4462.37	1915
4462.63	1903
4462.89	1851
4463.16	1775
4463.42	1845
4463.68	1805
4463.94	1789
4464.2	1817
4464.47	1791
4464.73	1757
4464.99	1727
4465.25	1739
4465.51	1725
4465.77	1751
4466.04	1721
4466.3	1649
4466.56	1585
4466.82	1665
4467.08	1683
4467.34	1589
4467.61	1619
4467.87	1569
4468.13	1655
4468.39	1597
4468.65	1569
4468.92	1493
4469.18	1497
4469.44	1527
4469.7	1553
4469.96	1555
4470.22	1473
4470.48	1461
4470.75	1463
4471.01	1483
4471.27	1435
4471.53	1475
4471.79	1457
4472.05	1415
4472.32	1395
4472.58	1487
4472.84	1467
4473.1	1405
4473.36	1353
4473.62	1405
4473.88	1423
4474.14	1415
4474.41	1377
4474.67	1359
4474.93	1423
4475.19	1397
4475.45	1409
4475.71	1331
4475.97	1353
4476.23	1347
4476.5	1395
4476.76	1379
4477.02	1369
4477.28	1361
4477.54	1347
4477.8	1371
4478.06	1339
4478.32	1353
4478.58	1311
4478.84	1293
4479.1	1319
4479.37	1391
4479.63	1365
4479.89	1317
4480.15	1309
4480.41	1309
4480.67	1355
4480.93	1331
4481.19	1311
4481.45	1271
4481.71	1285
4481.97	1369
4482.23	1319
4482.5	1309
4482.76	1291
4483.02	1263
4483.28	1287
4483.54	1297
4483.8	1303
4484.06	1319
4484.32	1297
4484.58	1295
4484.84	1329
4485.1	1375
4485.36	1345
4485.62	1321
4485.88	1249
4486.14	1301
4486.4	1375
4486.66	1339
4486.93	1337
4487.19	1283
4487.44	1335
4487.71	1403
4487.97	1407
4488.23	1333
4488.49	1301
4488.75	1369
4489.01	1409
4489.27	1369
4489.53	1411
4489.79	1407
4490.05	1357
4490.31	1369
4490.57	1369
4490.83	1409
4491.09	1415
4491.35	1363
4491.61	1361
4491.87	1387
4492.13	1429
4492.39	1387
4492.65	1347
4492.91	1349
4493.17	1379
4493.43	1423
4493.69	1331
4493.95	1305
4494.21	1291
4494.47	1309
4494.73	1371
4494.99	1293
4495.25	1311
4495.51	1277
4495.77	1263
4496.03	1275
4496.29	1267
4496.55	1275
4496.81	1247
4497.07	1227
4497.33	1239
4497.58	1233
4497.85	1273
4498.1	1199
4498.36	1159
4498.62	1187
4498.88	1203
4499.14	1251
4499.4	1197
4499.66	1167
4499.92	1159
4500.18	1231
4500.44	1169
4500.7	1175
4500.96	1185
4501.22	1167
4501.48	1213
4501.74	1233
4502	1169
4502.25	1209
4502.51	1171
4502.77	1141
4503.03	1163
4503.29	1203
4503.55	1177
4503.81	1191
4504.07	1143
4504.33	1137
4504.59	1151
4504.85	1175
4505.11	1137
4505.37	1101
4505.63	1085
4505.88	1197
4506.14	1179
4506.4	1109
4506.66	1107
4506.92	1127
4507.18	1153
4507.44	1099
4507.7	1129
4507.96	1079
4508.22	1081
4508.47	1079
4508.73	1057
4508.99	1085
4509.25	1081
4509.51	1057
4509.77	1027
4510.03	1013
4510.29	1071
4510.54	1045
4510.8	1037
4511.06	1015
4511.32	1027
4511.58	1071
4511.84	1017
4512.1	1011
4512.35	1013
4512.61	1055
4512.87	1029
4513.13	995
4513.39	987
4513.65	989
4513.91	1027
4514.16	1037
4514.42	1047
4514.68	981
4514.94	999
4515.2	995
4515.46	971
4515.72	995
4515.97	1007
4516.23	1005
4516.49	983
4516.75	939
4517.01	965
4517.26	1023
4517.52	969
4517.78	941
4518.04	981
4518.3	945
4518.56	955
4518.81	933
4519.07	903
4519.33	937
4519.59	985
4519.85	985
4520.1	947
4520.36	913
4520.62	933
4520.88	941
4521.14	949
4521.39	937
4521.65	893
4521.91	913
4522.17	907
4522.43	967
4522.68	937
4522.94	953
4523.2	907
4523.46	901
4523.72	877
4523.97	959
4524.23	995
4524.49	983
4524.75	945
4525	945
4525.26	1025
4525.52	987
4525.78	979
4526.03	993
4526.29	1021
4526.55	1045
4526.81	1039
4527.07	1039
4527.32	1019
4527.58	1067
4527.84	1087
4528.1	1121
4528.35	1107
4528.61	1149
4528.87	1175
4529.13	1117
4529.38	1159
4529.64	1211
4529.9	1203
4530.15	1193
4530.41	1179
4530.67	1213
4530.93	1237
4531.18	1281
4531.44	1205
4531.7	1237
4531.96	1233
4532.21	1245
4532.47	1299
4532.73	1271
4532.98	1253
4533.24	1273
4533.5	1287
4533.76	1259
4534.01	1267
4534.27	1249
