#Acq. time (s)=	1
#Accumulations=	2
#Range=	Off
#Autofocus=	Off
#AutoExposure=	Off
#Spike filter=	Multiple accum.
#Delay time (s)=	0
#Binning=	1
#Readout mode=	Signal
#DeNoise=	Off
#ICS correction=	Off
#Dark correction=	Off
#Inst. Process=	Off
#Detector Gain=	Best Dynamic Range
#Detector ADC=	45 kHz       
#Detector temperature (°C)=	-60.1
#Instrument=	LabRAM HR Evol
#Detector=	Syncerity
#Objective=	x50Lwd
#Grating=	1800 gr/mm
#Laser (nm)=	532 
#Spectro (cm-¹)=	4400
#ND Filter=	0.01%
#Hole=	100.021
#StageXY=	Marzhauser
#StageZ=	Marzhauser
#X (µm)=	0
#Y (µm)=	0
#Z (µm)=	59.8
#Full time(s)=	3
#Project=	A
#Sample=	B
#Site=	C
#Title=	G_P00_44
#Remark=	
#Date=	09.12.2021 10:35
#Acquired=	09.12.2021 10:35:21
#AxisType[0]=Intens
#AxisUnit[0]=Cnt
#AxisType[1]=Spectr
#AxisUnit[1]=1/cm
4261.72	343
4262	343
4262.27	343
4262.55	347
4262.82	331
4263.1	343
4263.37	349
4263.65	333
4263.93	347
4264.2	351
4264.48	345
4264.75	355
4265.03	339
4265.3	327
4265.58	345
4265.86	353
4266.13	335
4266.41	353
4266.68	345
4266.96	347
4267.23	345
4267.51	361
4267.78	355
4268.06	349
4268.34	333
4268.61	337
4268.89	347
4269.16	373
4269.44	335
4269.71	343
4269.99	337
4270.26	327
4270.54	341
4270.81	333
4271.09	363
4271.36	351
4271.64	359
4271.91	337
4272.19	347
4272.47	345
4272.74	355
4273.02	343
4273.29	329
4273.57	339
4273.84	333
4274.12	351
4274.39	337
4274.67	349
4274.94	343
4275.22	327
4275.49	335
4275.77	343
4276.04	335
4276.32	343
4276.59	345
4276.86	345
4277.14	343
4277.42	349
4277.69	343
4277.96	349
4278.24	347
4278.51	345
4278.79	353
4279.06	329
4279.34	363
4279.61	353
4279.89	357
4280.16	345
4280.44	335
4280.71	353
4280.99	343
4281.26	363
4281.54	347
4281.81	355
4282.08	339
4282.36	343
4282.63	339
4282.91	357
4283.18	369
4283.46	337
4283.73	357
4284.01	357
4284.28	355
4284.55	347
4284.83	357
4285.1	359
4285.38	337
4285.65	353
4285.93	349
4286.2	331
4286.47	353
4286.75	331
4287.02	347
4287.3	361
4287.57	359
4287.85	339
4288.12	349
4288.39	361
4288.67	343
4288.94	335
4289.22	345
4289.49	347
4289.76	363
4290.04	345
4290.31	347
4290.59	361
4290.86	335
4291.13	345
4291.41	329
4291.68	355
4291.95	351
4292.23	347
4292.5	369
4292.78	369
4293.05	337
4293.32	349
4293.6	353
4293.87	341
4294.15	351
4294.42	337
4294.69	355
4294.97	343
4295.24	347
4295.51	359
4295.79	351
4296.06	353
4296.33	367
4296.61	355
4296.88	343
4297.15	363
4297.43	339
4297.7	363
4297.98	365
4298.25	355
4298.52	343
4298.8	345
4299.07	353
4299.34	345
4299.62	373
4299.89	351
4300.16	351
4300.43	373
4300.71	365
4300.98	345
4301.25	355
4301.53	337
4301.8	347
4302.07	367
4302.35	369
4302.62	359
4302.89	361
4303.17	365
4303.44	341
4303.71	369
4303.99	363
4304.26	371
4304.53	367
4304.81	353
4305.08	355
4305.35	353
4305.62	377
4305.9	353
4306.17	359
4306.44	359
4306.72	363
4306.99	359
4307.26	361
4307.53	383
4307.81	385
4308.08	373
4308.35	361
4308.62	367
4308.9	365
4309.17	371
4309.44	393
4309.72	369
4309.99	367
4310.26	381
4310.53	375
4310.81	387
4311.08	363
4311.35	379
4311.62	363
4311.9	379
4312.17	373
4312.44	389
4312.71	381
4312.98	375
4313.26	359
4313.53	379
4313.8	373
4314.08	363
4314.35	385
4314.62	375
4314.89	369
4315.16	395
4315.44	361
4315.71	379
4315.98	405
4316.25	409
4316.53	389
4316.8	391
4317.07	401
4317.34	413
4317.61	383
4317.89	363
4318.16	387
4318.43	367
4318.7	365
4318.97	389
4319.25	407
4319.52	391
4319.79	403
4320.06	387
4320.33	403
4320.61	399
4320.88	403
4321.15	415
4321.42	415
4321.69	413
4321.96	403
4322.24	413
4322.51	409
4322.78	405
4323.05	415
4323.32	413
4323.6	411
4323.87	407
4324.14	405
4324.41	413
4324.68	407
4324.95	413
4325.22	381
4325.5	391
4325.77	411
4326.04	421
4326.31	423
4326.58	419
4326.85	437
4327.13	417
4327.4	445
4327.67	423
4327.94	423
4328.21	445
4328.48	413
4328.75	433
4329.02	421
4329.3	423
4329.57	427
4329.84	419
4330.11	419
4330.38	441
4330.65	439
4330.92	421
4331.19	431
4331.47	435
4331.74	431
4332.01	449
4332.28	435
4332.55	437
4332.82	449
4333.09	443
4333.36	449
4333.63	459
4333.91	469
4334.18	441
4334.45	463
4334.72	453
4334.99	465
4335.26	459
4335.53	449
4335.8	461
4336.07	455
4336.34	471
4336.61	487
4336.89	477
4337.16	457
4337.43	469
4337.7	471
4337.97	491
4338.24	457
4338.51	493
4338.78	465
4339.05	483
4339.32	491
4339.59	489
4339.86	499
4340.13	501
4340.4	499
4340.67	511
4340.94	501
4341.21	539
4341.49	503
4341.76	523
4342.03	509
4342.3	493
4342.57	505
4342.84	539
4343.11	513
4343.38	519
4343.65	541
4343.92	501
4344.19	523
4344.46	561
4344.73	563
4345	547
4345.27	539
4345.54	539
4345.81	563
4346.08	551
4346.35	561
4346.62	547
4346.89	565
4347.16	577
4347.43	571
4347.7	567
4347.97	583
4348.24	573
4348.51	565
4348.78	589
4349.05	585
4349.32	607
4349.59	599
4349.86	603
4350.13	581
4350.4	593
4350.67	605
4350.94	587
4351.21	619
4351.48	631
4351.75	641
4352.02	631
4352.29	629
4352.56	641
4352.83	639
4353.1	641
4353.37	645
4353.64	637
4353.91	637
4354.18	657
4354.45	673
4354.72	661
4354.99	685
4355.25	681
4355.52	673
4355.79	695
4356.06	715
4356.33	703
4356.6	691
4356.87	701
4357.14	711
4357.41	717
4357.68	751
4357.95	751
4358.22	757
4358.49	763
4358.76	747
4359.03	769
4359.3	767
4359.56	759
4359.83	781
4360.1	783
4360.37	771
4360.64	813
4360.91	809
4361.18	813
4361.45	823
4361.72	815
4361.99	829
4362.26	861
4362.52	863
4362.79	875
4363.06	827
4363.33	883
4363.6	889
4363.87	913
4364.14	903
4364.41	887
4364.68	931
4364.94	967
4365.21	967
4365.48	961
4365.75	969
4366.02	987
4366.29	999
4366.56	1013
4366.83	999
4367.09	1009
4367.36	1019
4367.63	1065
4367.9	1043
4368.17	1081
4368.44	1093
4368.71	1097
4368.98	1099
4369.24	1133
4369.51	1123
4369.78	1185
4370.05	1155
4370.32	1209
4370.59	1233
4370.86	1259
4371.12	1215
4371.39	1267
4371.66	1285
4371.93	1293
4372.2	1351
4372.47	1341
4372.73	1399
4373	1417
4373.27	1417
4373.54	1443
4373.81	1477
4374.07	1503
4374.34	1509
4374.61	1515
4374.88	1513
4375.15	1619
4375.42	1627
4375.68	1635
4375.95	1747
4376.22	1787
4376.49	1729
4376.76	1855
4377.02	1859
4377.29	1917
4377.56	1941
4377.83	1973
4378.1	2043
4378.36	2089
4378.63	2141
4378.9	2157
4379.17	2249
4379.44	2309
4379.7	2335
4379.97	2427
4380.24	2467
4380.51	2613
4380.77	2637
4381.04	2719
4381.31	2833
4381.58	2871
4381.85	2963
4382.11	3091
4382.38	3123
4382.65	3331
4382.92	3447
4383.18	3503
4383.45	3657
4383.72	3815
4383.99	3885
4384.25	4019
4384.52	4291
4384.79	4409
4385.06	4631
4385.32	4841
4385.59	4987
4385.86	5215
4386.13	5501
4386.39	5729
4386.66	5975
4386.93	6051
4387.19	6461
4387.46	6737
4387.73	7093
4388	7393
4388.26	7667
4388.53	8091
4388.8	8687
4389.07	9023
4389.33	9413
4389.6	9709
4389.87	10271
4390.13	10849
4390.4	11449
4390.67	11925
4390.94	12541
4391.2	13067
4391.47	13765
4391.74	14461
4392	15167
4392.27	15865
4392.54	16395
4392.8	17127
4393.07	17995
4393.34	18489
4393.6	19323
4393.87	19867
4394.14	20791
4394.41	21399
4394.67	21767
4394.94	22441
4395.21	23087
4395.47	23449
4395.74	23941
4396.01	24185
4396.27	24395
4396.54	24535
4396.81	24583
4397.07	24913
4397.34	24603
4397.61	24577
4397.87	24297
4398.14	23967
4398.41	23539
4398.67	23269
4398.94	22557
4399.2	22005
4399.47	21399
4399.74	21167
4400	20501
4400.27	19817
4400.54	19249
4400.8	18573
4401.07	17917
4401.34	17469
4401.6	16837
4401.87	16303
4402.14	15505
4402.4	15095
4402.67	14659
4402.93	14099
4403.2	13821
4403.47	13141
4403.73	12861
4404	12479
4404.26	12071
4404.53	11679
4404.8	11335
4405.06	11097
4405.33	10987
4405.59	10609
4405.86	10495
4406.13	10107
4406.39	9963
4406.66	9719
4406.93	9659
4407.19	9421
4407.46	9205
4407.72	9035
4407.99	9063
4408.25	9095
4408.52	8859
4408.79	8819
4409.05	8803
4409.32	8803
4409.58	8679
4409.85	8733
4410.11	8655
4410.38	8779
4410.65	8823
4410.91	8865
4411.18	8829
4411.44	8925
4411.71	8993
4411.97	8875
4412.24	9253
4412.51	9279
4412.77	9505
4413.04	9427
4413.3	9693
4413.57	9967
4413.83	10063
4414.1	10449
4414.36	10581
4414.63	10727
4414.9	10961
4415.16	11237
4415.43	11665
4415.69	11933
4415.96	12221
4416.22	12499
4416.49	13127
4416.75	13643
4417.02	13973
4417.28	14389
4417.55	14847
4417.81	15601
4418.08	16099
4418.34	16695
4418.61	17159
4418.87	18107
4419.14	18687
4419.4	19423
4419.67	20279
4419.93	21059
4420.2	21423
4420.46	22587
4420.73	23601
4420.99	24815
4421.26	25275
4421.52	26081
4421.79	26991
4422.05	28413
4422.32	29477
4422.58	29893
4422.85	30789
4423.11	32109
4423.38	32989
4423.64	33535
4423.91	34615
4424.17	35255
4424.44	36093
4424.7	36983
4424.97	37407
4425.23	37663
4425.5	38369
4425.76	38457
4426.02	38929
4426.29	39077
4426.55	39087
4426.82	38815
4427.08	38867
4427.35	38643
4427.61	38237
4427.88	37645
4428.14	37231
4428.41	36755
4428.67	35693
4428.94	35271
4429.2	34385
4429.46	33917
4429.73	32831
4429.99	31907
4430.26	30989
4430.52	30091
4430.79	29533
4431.05	28423
4431.31	27409
4431.58	26509
4431.84	25857
4432.11	24791
4432.37	23963
4432.63	23131
4432.9	22251
4433.16	21501
4433.43	20733
4433.69	20121
4433.96	19431
4434.22	18733
4434.48	17925
4434.75	17389
4435.01	16933
4435.28	16023
4435.54	15537
4435.8	15147
4436.07	14489
4436.33	14033
4436.6	13511
4436.86	13111
4437.12	12769
4437.39	12159
4437.65	11927
4437.92	11421
4438.18	11219
4438.44	10585
4438.71	10457
4438.97	10041
4439.23	9755
4439.5	9487
4439.76	9203
4440.02	8793
4440.29	8627
4440.55	8277
4440.82	8145
4441.08	7901
4441.34	7635
4441.61	7387
4441.87	7161
4442.13	6985
4442.4	6699
4442.66	6447
4442.92	6373
4443.19	6313
4443.45	6095
4443.71	5931
4443.98	5711
4444.24	5583
4444.5	5501
4444.77	5389
4445.03	5251
4445.29	5129
4445.56	5107
4445.82	4951
4446.08	4767
4446.35	4697
4446.61	4565
4446.87	4485
4447.14	4427
4447.4	4363
4447.66	4217
4447.93	4119
4448.19	4113
4448.45	3967
4448.72	3907
4448.98	3939
4449.24	3753
4449.5	3679
4449.77	3625
4450.03	3667
4450.29	3525
4450.56	3449
4450.82	3451
4451.08	3407
4451.34	3315
4451.61	3279
4451.87	3227
4452.13	3139
4452.4	3171
4452.66	3047
4452.92	3057
4453.18	2981
4453.45	2947
4453.71	2879
4453.97	2871
4454.23	2815
4454.5	2775
4454.76	2755
4455.02	2717
4455.29	2629
4455.55	2641
4455.81	2581
4456.07	2567
4456.34	2505
4456.6	2501
4456.86	2407
4457.12	2439
4457.39	2403
4457.65	2341
4457.91	2295
4458.17	2281
4458.44	2289
4458.7	2307
4458.96	2171
4459.22	2145
4459.48	2145
4459.75	2131
4460.01	2149
4460.27	1991
4460.53	2051
4460.8	1995
4461.06	1991
4461.32	1977
4461.58	1945
4461.84	1939
4462.11	1929
4462.37	1961
4462.63	1853
4462.89	1863
4463.16	1815
4463.42	1811
4463.68	1807
4463.94	1797
4464.2	1695
4464.47	1737
4464.73	1741
4464.99	1657
4465.25	1673
4465.51	1647
4465.77	1673
4466.04	1641
4466.3	1597
4466.56	1631
4466.82	1633
4467.08	1603
4467.34	1573
4467.61	1557
4467.87	1563
4468.13	1523
4468.39	1519
4468.65	1487
4468.92	1499
4469.18	1503
4469.44	1511
4469.7	1529
4469.96	1479
4470.22	1479
4470.48	1447
4470.75	1493
4471.01	1447
4471.27	1465
4471.53	1427
4471.79	1365
4472.05	1387
4472.32	1381
4472.58	1345
4472.84	1371
4473.1	1325
4473.36	1353
4473.62	1323
4473.88	1335
4474.14	1329
4474.41	1323
4474.67	1309
4474.93	1325
4475.19	1301
4475.45	1301
4475.71	1231
4475.97	1217
4476.23	1255
4476.5	1225
4476.76	1249
4477.02	1239
4477.28	1195
4477.54	1167
4477.8	1205
4478.06	1189
4478.32	1189
4478.58	1155
4478.84	1139
4479.1	1151
4479.37	1187
4479.63	1161
4479.89	1145
4480.15	1167
4480.41	1123
4480.67	1109
4480.93	1129
4481.19	1151
4481.45	1077
4481.71	1119
4481.97	1139
4482.23	1113
4482.5	1113
4482.76	1123
4483.02	1093
4483.28	1051
4483.54	1083
4483.8	1035
4484.06	1105
4484.32	1093
4484.58	1093
4484.84	1065
4485.1	1081
4485.36	1045
4485.62	1043
4485.88	1061
4486.14	1035
4486.4	1053
4486.66	1043
4486.93	1007
4487.19	1017
4487.44	1059
4487.71	1057
4487.97	1073
4488.23	1045
4488.49	1027
4488.75	1047
4489.01	1019
4489.27	1051
4489.53	1029
4489.79	1027
4490.05	1037
4490.31	1043
4490.57	995
4490.83	1015
4491.09	1009
4491.35	1027
4491.61	1023
4491.87	1015
4492.13	1043
4492.39	1041
4492.65	1007
4492.91	1011
4493.17	1059
4493.43	1055
4493.69	1051
4493.95	1041
4494.21	1031
4494.47	1025
4494.73	1043
4494.99	999
4495.25	1045
4495.51	1057
4495.77	1089
4496.03	1049
4496.29	1101
4496.55	1047
4496.81	1055
4497.07	1099
4497.33	1079
4497.58	1119
4497.85	1081
4498.1	1079
4498.36	1087
4498.62	1061
4498.88	1099
4499.14	1121
4499.4	1079
4499.66	1049
4499.92	1123
4500.18	1065
4500.44	1109
4500.7	1115
4500.96	1073
4501.22	1089
4501.48	1067
4501.74	1033
4502	1035
4502.25	1043
4502.51	1089
4502.77	1065
4503.03	1069
4503.29	1029
4503.55	1027
4503.81	1051
4504.07	1043
4504.33	1025
4504.59	1035
4504.85	1013
4505.11	1003
4505.37	969
4505.63	1001
4505.88	1009
4506.14	981
4506.4	965
4506.66	967
4506.92	993
4507.18	967
4507.44	967
4507.7	1009
4507.96	939
4508.22	975
4508.47	959
4508.73	977
4508.99	961
4509.25	927
4509.51	965
4509.77	955
4510.03	929
4510.29	947
4510.54	941
4510.8	939
4511.06	941
4511.32	903
4511.58	937
4511.84	947
4512.1	929
4512.35	893
4512.61	927
4512.87	929
4513.13	915
4513.39	887
4513.65	905
4513.91	889
4514.16	909
4514.42	869
4514.68	873
4514.94	901
4515.2	871
4515.46	877
4515.72	879
4515.97	865
4516.23	885
4516.49	867
4516.75	829
4517.01	851
4517.26	819
4517.52	871
4517.78	821
4518.04	841
4518.3	851
4518.56	821
4518.81	843
4519.07	849
4519.33	821
4519.59	823
4519.85	831
4520.1	789
4520.36	833
4520.62	825
4520.88	803
4521.14	841
4521.39	833
4521.65	827
4521.91	815
4522.17	793
4522.43	831
4522.68	781
4522.94	819
4523.2	793
4523.46	789
4523.72	803
4523.97	813
4524.23	771
4524.49	805
4524.75	771
4525	787
4525.26	773
4525.52	797
4525.78	777
4526.03	775
4526.29	791
4526.55	739
4526.81	813
4527.07	775
4527.32	757
4527.58	779
4527.84	783
4528.1	787
4528.35	767
4528.61	775
4528.87	751
4529.13	735
4529.38	745
4529.64	779
4529.9	745
4530.15	747
4530.41	761
4530.67	765
4530.93	741
4531.18	729
4531.44	757
4531.7	761
4531.96	717
4532.21	771
4532.47	743
4532.73	745
4532.98	763
4533.24	779
4533.5	775
4533.76	763
4534.01	777
4534.27	793
