#Acq. time (s)=	1
#Accumulations=	2
#Range=	Off
#Autofocus=	Off
#AutoExposure=	Off
#Spike filter=	Multiple accum.
#Delay time (s)=	0
#Binning=	1
#Readout mode=	Signal
#DeNoise=	Off
#ICS correction=	Off
#Dark correction=	Off
#Inst. Process=	Off
#Detector Gain=	Best Dynamic Range
#Detector ADC=	45 kHz       
#Detector temperature (°C)=	-60.1
#Instrument=	LabRAM HR Evol
#Detector=	Syncerity
#Objective=	x50Lwd
#Grating=	1800 gr/mm
#Laser (nm)=	532 
#Spectro (cm-¹)=	4400
#ND Filter=	0.01%
#Hole=	100.021
#StageXY=	Marzhauser
#StageZ=	Marzhauser
#X (µm)=	0
#Y (µm)=	0
#Z (µm)=	78.8
#Full time(s)=	6
#Project=	A
#Sample=	B
#Site=	C
#Title=	G_P00_42
#Remark=	
#Date=	09.12.2021 13:51
#Acquired=	09.12.2021 13:51:42
#AxisType[0]=Intens
#AxisUnit[0]=Cnt
#AxisType[1]=Spectr
#AxisUnit[1]=1/cm
4261.72	341
4262	341
4262.27	361
4262.55	351
4262.82	331
4263.1	347
4263.37	345
4263.65	347
4263.93	355
4264.2	355
4264.48	357
4264.75	359
4265.03	361
4265.3	351
4265.58	363
4265.86	373
4266.13	369
4266.41	347
4266.68	365
4266.96	343
4267.23	325
4267.51	369
4267.78	355
4268.06	339
4268.34	339
4268.61	327
4268.89	361
4269.16	349
4269.44	339
4269.71	353
4269.99	337
4270.26	347
4270.54	357
4270.81	355
4271.09	341
4271.36	359
4271.64	353
4271.91	357
4272.19	341
4272.47	359
4272.74	341
4273.02	361
4273.29	351
4273.57	345
4273.84	357
4274.12	359
4274.39	349
4274.67	363
4274.94	351
4275.22	363
4275.49	339
4275.77	349
4276.04	359
4276.32	351
4276.59	347
4276.86	355
4277.14	367
4277.42	367
4277.69	355
4277.96	333
4278.24	345
4278.51	349
4278.79	347
4279.06	359
4279.34	359
4279.61	351
4279.89	363
4280.16	359
4280.44	367
4280.71	359
4280.99	329
4281.26	339
4281.54	345
4281.81	349
4282.08	361
4282.36	355
4282.63	343
4282.91	343
4283.18	355
4283.46	347
4283.73	357
4284.01	343
4284.28	353
4284.55	377
4284.83	369
4285.1	371
4285.38	367
4285.65	363
4285.93	325
4286.2	357
4286.47	351
4286.75	355
4287.02	375
4287.3	349
4287.57	347
4287.85	335
4288.12	353
4288.39	367
4288.67	339
4288.94	371
4289.22	351
4289.49	367
4289.76	347
4290.04	343
4290.31	351
4290.59	367
4290.86	345
4291.13	357
4291.41	363
4291.68	347
4291.95	355
4292.23	365
4292.5	357
4292.78	349
4293.05	337
4293.32	343
4293.6	351
4293.87	339
4294.15	355
4294.42	353
4294.69	347
4294.97	377
4295.24	343
4295.51	367
4295.79	353
4296.06	359
4296.33	365
4296.61	351
4296.88	369
4297.15	367
4297.43	339
4297.7	355
4297.98	357
4298.25	343
4298.52	361
4298.8	371
4299.07	367
4299.34	369
4299.62	363
4299.89	351
4300.16	349
4300.43	341
4300.71	341
4300.98	351
4301.25	371
4301.53	363
4301.8	385
4302.07	355
4302.35	377
4302.62	363
4302.89	351
4303.17	351
4303.44	373
4303.71	355
4303.99	373
4304.26	371
4304.53	383
4304.81	375
4305.08	371
4305.35	375
4305.62	375
4305.9	365
4306.17	373
4306.44	367
4306.72	367
4306.99	371
4307.26	375
4307.53	353
4307.81	365
4308.08	367
4308.35	383
4308.62	365
4308.9	377
4309.17	361
4309.44	385
4309.72	367
4309.99	375
4310.26	375
4310.53	377
4310.81	389
4311.08	355
4311.35	393
4311.62	395
4311.9	391
4312.17	381
4312.44	373
4312.71	381
4312.98	365
4313.26	391
4313.53	379
4313.8	391
4314.08	377
4314.35	375
4314.62	393
4314.89	385
4315.16	377
4315.44	391
4315.71	375
4315.98	387
4316.25	393
4316.53	401
4316.8	383
4317.07	385
4317.34	395
4317.61	381
4317.89	381
4318.16	389
4318.43	383
4318.7	377
4318.97	393
4319.25	397
4319.52	383
4319.79	387
4320.06	395
4320.33	391
4320.61	379
4320.88	393
4321.15	405
4321.42	394
4321.69	383
4321.96	403
4322.24	403
4322.51	393
4322.78	403
4323.05	413
4323.32	399
4323.6	403
4323.87	381
4324.14	397
4324.41	381
4324.68	399
4324.95	407
4325.22	397
4325.5	427
4325.77	405
4326.04	401
4326.31	419
4326.58	407
4326.85	409
4327.13	407
4327.4	403
4327.67	423
4327.94	423
4328.21	419
4328.48	423
4328.75	423
4329.02	431
4329.3	401
4329.57	417
4329.84	427
4330.11	433
4330.38	435
4330.65	429
4330.92	405
4331.19	399
4331.47	439
4331.74	427
4332.01	415
4332.28	425
4332.55	451
4332.82	423
4333.09	435
4333.36	453
4333.63	447
4333.91	433
4334.18	421
4334.45	461
4334.72	427
4334.99	453
4335.26	431
4335.53	457
4335.8	427
4336.07	461
4336.34	463
4336.61	461
4336.89	469
4337.16	467
4337.43	455
4337.7	455
4337.97	459
4338.24	463
4338.51	477
4338.78	469
4339.05	467
4339.32	455
4339.59	491
4339.86	469
4340.13	499
4340.4	459
4340.67	471
4340.94	459
4341.21	455
4341.49	479
4341.76	487
4342.03	493
4342.3	505
4342.57	493
4342.84	475
4343.11	493
4343.38	483
4343.65	495
4343.92	487
4344.19	489
4344.46	485
4344.73	515
4345	477
4345.27	499
4345.54	501
4345.81	501
4346.08	519
4346.35	531
4346.62	503
4346.89	533
4347.16	529
4347.43	523
4347.7	501
4347.97	529
4348.24	521
4348.51	533
4348.78	547
4349.05	537
4349.32	515
4349.59	567
4349.86	553
4350.13	553
4350.4	561
4350.67	543
4350.94	565
4351.21	563
4351.48	579
4351.75	577
4352.02	551
4352.29	531
4352.56	575
4352.83	569
4353.1	569
4353.37	559
4353.64	557
4353.91	603
4354.18	607
4354.45	555
4354.72	587
4354.99	617
4355.25	583
4355.52	585
4355.79	623
4356.06	631
4356.33	579
4356.6	601
4356.87	621
4357.14	633
4357.41	625
4357.68	649
4357.95	643
4358.22	685
4358.49	675
4358.76	639
4359.03	629
4359.3	675
4359.56	687
4359.83	681
4360.1	675
4360.37	663
4360.64	667
4360.91	681
4361.18	715
4361.45	701
4361.72	699
4361.99	719
4362.26	727
4362.52	695
4362.79	769
4363.06	745
4363.33	705
4363.6	743
4363.87	739
4364.14	775
4364.41	773
4364.68	733
4364.94	769
4365.21	797
4365.48	813
4365.75	761
4366.02	767
4366.29	797
4366.56	787
4366.83	825
4367.09	815
4367.36	825
4367.63	825
4367.9	831
4368.17	853
4368.44	865
4368.71	853
4368.98	883
4369.24	859
4369.51	909
4369.78	899
4370.05	877
4370.32	885
4370.59	909
4370.86	985
4371.12	953
4371.39	943
4371.66	945
4371.93	997
4372.2	993
4372.47	987
4372.73	997
4373	973
4373.27	1015
4373.54	1045
4373.81	1031
4374.07	1041
4374.34	1041
4374.61	1069
4374.88	1073
4375.15	1085
4375.42	1113
4375.68	1131
4375.95	1141
4376.22	1155
4376.49	1181
4376.76	1195
4377.02	1169
4377.29	1187
4377.56	1165
4377.83	1225
4378.1	1303
4378.36	1261
4378.63	1211
4378.9	1289
4379.17	1323
4379.44	1363
4379.7	1343
4379.97	1331
4380.24	1383
4380.51	1401
4380.77	1409
4381.04	1391
4381.31	1439
4381.58	1501
4381.85	1541
4382.11	1515
4382.38	1569
4382.65	1585
4382.92	1589
4383.18	1617
4383.45	1657
4383.72	1733
4383.99	1677
4384.25	1739
4384.52	1737
4384.79	1829
4385.06	1831
4385.32	1827
4385.59	1903
4385.86	1975
4386.13	1987
4386.39	2017
4386.66	2075
4386.93	2161
4387.19	2165
4387.46	2197
4387.73	2303
4388	2323
4388.26	2361
4388.53	2387
4388.8	2433
4389.07	2503
4389.33	2625
4389.6	2671
4389.87	2683
4390.13	2779
4390.4	2929
4390.67	3007
4390.94	2997
4391.2	3161
4391.47	3325
4391.74	3429
4392	3501
4392.27	3583
4392.54	3699
4392.8	3889
4393.07	4013
4393.34	4117
4393.6	4225
4393.87	4381
4394.14	4575
4394.41	4719
4394.67	4841
4394.94	5089
4395.21	5219
4395.47	5473
4395.74	5609
4396.01	5833
4396.27	6295
4396.54	6497
4396.81	6655
4397.07	6947
4397.34	7389
4397.61	7797
4397.87	8033
4398.14	8315
4398.41	8721
4398.67	9277
4398.94	9659
4399.2	9983
4399.47	10461
4399.74	10985
4400	11481
4400.27	11967
4400.54	12451
4400.8	13019
4401.07	13721
4401.34	14119
4401.6	14877
4401.87	15777
4402.14	16151
4402.4	16869
4402.67	17607
4402.93	18489
4403.2	19005
4403.47	19913
4403.73	20467
4404	21357
4404.26	22219
4404.53	23039
4404.8	23593
4405.06	24293
4405.33	25143
4405.59	26191
4405.86	26525
4406.13	27173
4406.39	27791
4406.66	28193
4406.93	28785
4407.19	29413
4407.46	29839
4407.72	29935
4407.99	30263
4408.25	30457
4408.52	30537
4408.79	30687
4409.05	30517
4409.32	30309
4409.58	29799
4409.85	29499
4410.11	29655
4410.38	28893
4410.65	27749
4410.91	27209
4411.18	27151
4411.44	26405
4411.71	25313
4411.97	24533
4412.24	23933
4412.51	23265
4412.77	22461
4413.04	21611
4413.3	20945
4413.57	20279
4413.83	19569
4414.1	18721
4414.36	18255
4414.63	17609
4414.9	16827
4415.16	16225
4415.43	15885
4415.69	15603
4415.96	14985
4416.22	14415
4416.49	14093
4416.75	14053
4417.02	13675
4417.28	13145
4417.55	12953
4417.81	12727
4418.08	12513
4418.34	12263
4418.61	11999
4418.87	11787
4419.14	11715
4419.4	11589
4419.67	11479
4419.93	11429
4420.2	11417
4420.46	11323
4420.73	11293
4420.99	11339
4421.26	11289
4421.52	11171
4421.79	11175
4422.05	11277
4422.32	11479
4422.58	11607
4422.85	11499
4423.11	11655
4423.38	11813
4423.64	12025
4423.91	12261
4424.17	12409
4424.44	12585
4424.7	12545
4424.97	13231
4425.23	13303
4425.5	13647
4425.76	13913
4426.02	14151
4426.29	14433
4426.55	15241
4426.82	15415
4427.08	15891
4427.35	16371
4427.61	16815
4427.88	17429
4428.14	18123
4428.41	18623
4428.67	19107
4428.94	19617
4429.2	20519
4429.46	21385
4429.73	22111
4429.99	22709
4430.26	23463
4430.52	24643
4430.79	25643
4431.05	26365
4431.31	27173
4431.58	28047
4431.84	29361
4432.11	30259
4432.37	30975
4432.63	32347
4432.9	33453
4433.16	34421
4433.43	35123
4433.69	36845
4433.96	38207
4434.22	38603
4434.48	39499
4434.75	40611
4435.01	42321
4435.28	43119
4435.54	43393
4435.8	44379
4436.07	45515
4436.33	46289
4436.6	47009
4436.86	46751
4437.12	47527
4437.39	48009
4437.65	48107
4437.92	48041
4438.18	48039
4438.44	47913
4438.71	47999
4438.97	47245
4439.23	47245
4439.5	46825
4439.76	45921
4440.02	44739
4440.29	44055
4440.55	43485
4440.82	42683
4441.08	41461
4441.34	40113
4441.61	38901
4441.87	38455
4442.13	37319
4442.4	36219
4442.66	34627
4442.92	33575
4443.19	32809
4443.45	31715
4443.71	30413
4443.98	28979
4444.24	28379
4444.5	27397
4444.77	26429
4445.03	25291
4445.29	24205
4445.56	23477
4445.82	22567
4446.08	21853
4446.35	21269
4446.61	20403
4446.87	19583
4447.14	18743
4447.4	18323
4447.66	17783
4447.93	17193
4448.19	16337
4448.45	15727
4448.72	15381
4448.98	15009
4449.24	14453
4449.5	13823
4449.77	13237
4450.03	12983
4450.29	12625
4450.56	12163
4450.82	11571
4451.08	11447
4451.34	11037
4451.61	10719
4451.87	10539
4452.13	10121
4452.4	9663
4452.66	9397
4452.92	9223
4453.18	8959
4453.45	8727
4453.71	8447
4453.97	8245
4454.23	8081
4454.5	7795
4454.76	7543
4455.02	7333
4455.29	7239
4455.55	6955
4455.81	6923
4456.07	6777
4456.34	6411
4456.6	6353
4456.86	6165
4457.12	6079
4457.39	5945
4457.65	5801
4457.91	5633
4458.17	5595
4458.44	5467
4458.7	5349
4458.96	5287
4459.22	5155
4459.48	5039
4459.75	4869
4460.01	4747
4460.27	4815
4460.53	4677
4460.8	4663
4461.06	4427
4461.32	4477
4461.58	4397
4461.84	4225
4462.11	4255
4462.37	4111
4462.63	4073
4462.89	4093
4463.16	3967
4463.42	3857
4463.68	3855
4463.94	3745
4464.2	3719
4464.47	3697
4464.73	3669
4464.99	3541
4465.25	3471
4465.51	3409
4465.77	3425
4466.04	3403
4466.3	3323
4466.56	3253
4466.82	3223
4467.08	3261
4467.34	3179
4467.61	3091
4467.87	2969
4468.13	2983
4468.39	3027
4468.65	2919
4468.92	2841
4469.18	2843
4469.44	2819
4469.7	2847
4469.96	2731
4470.22	2675
4470.48	2659
4470.75	2673
4471.01	2621
4471.27	2565
4471.53	2589
4471.79	2545
4472.05	2449
4472.32	2435
4472.58	2441
4472.84	2437
4473.1	2397
4473.36	2371
4473.62	2297
4473.88	2353
4474.14	2269
4474.41	2263
4474.67	2235
4474.93	2267
4475.19	2151
4475.45	2201
4475.71	2131
4475.97	2099
4476.23	2007
4476.5	2073
4476.76	2027
4477.02	2013
4477.28	2011
4477.54	2061
4477.8	1975
4478.06	1911
4478.32	1975
4478.58	1961
4478.84	1971
4479.1	1847
4479.37	1869
4479.63	1893
4479.89	1863
4480.15	1841
4480.41	1801
4480.67	1813
4480.93	1833
4481.19	1815
4481.45	1741
4481.71	1765
4481.97	1781
4482.23	1721
4482.5	1753
4482.76	1721
4483.02	1751
4483.28	1711
4483.54	1659
4483.8	1683
4484.06	1647
4484.32	1655
4484.58	1567
4484.84	1637
4485.1	1575
4485.36	1605
4485.62	1595
4485.88	1583
4486.14	1561
4486.4	1557
4486.66	1595
4486.93	1499
4487.19	1551
4487.44	1529
4487.71	1503
4487.97	1545
4488.23	1487
4488.49	1447
4488.75	1517
4489.01	1485
4489.27	1425
4489.53	1449
4489.79	1439
4490.05	1377
4490.31	1337
4490.57	1383
4490.83	1413
4491.09	1395
4491.35	1381
4491.61	1405
4491.87	1345
4492.13	1407
4492.39	1397
4492.65	1341
4492.91	1365
4493.17	1337
4493.43	1357
4493.69	1355
4493.95	1281
4494.21	1329
4494.47	1335
4494.73	1347
4494.99	1327
4495.25	1271
4495.51	1265
4495.77	1313
4496.03	1263
4496.29	1247
4496.55	1237
4496.81	1281
4497.07	1275
4497.33	1233
4497.58	1277
4497.85	1321
4498.1	1289
4498.36	1241
4498.62	1263
4498.88	1241
4499.14	1231
4499.4	1253
4499.66	1235
4499.92	1257
4500.18	1271
4500.44	1241
4500.7	1219
4500.96	1253
4501.22	1241
4501.48	1183
4501.74	1251
4502	1263
4502.25	1245
4502.51	1215
4502.77	1219
4503.03	1241
4503.29	1211
4503.55	1241
4503.81	1265
4504.07	1215
4504.33	1221
4504.59	1271
4504.85	1245
4505.11	1255
4505.37	1229
4505.63	1227
4505.88	1303
4506.14	1279
4506.4	1245
4506.66	1283
4506.92	1245
4507.18	1259
4507.44	1241
4507.7	1227
4507.96	1263
4508.22	1273
4508.47	1337
4508.73	1295
4508.99	1271
4509.25	1289
4509.51	1317
4509.77	1303
4510.03	1353
4510.29	1271
4510.54	1295
4510.8	1275
4511.06	1319
4511.32	1265
4511.58	1301
4511.84	1355
4512.1	1329
4512.35	1315
4512.61	1325
4512.87	1333
4513.13	1327
4513.39	1293
4513.65	1287
4513.91	1317
4514.16	1309
4514.42	1315
4514.68	1217
4514.94	1259
4515.2	1283
4515.46	1205
4515.72	1215
4515.97	1277
4516.23	1221
4516.49	1235
4516.75	1253
4517.01	1193
4517.26	1207
4517.52	1223
4517.78	1183
4518.04	1203
4518.3	1197
4518.56	1209
4518.81	1219
4519.07	1193
4519.33	1177
4519.59	1169
4519.85	1167
4520.1	1171
4520.36	1167
4520.62	1181
4520.88	1189
4521.14	1167
4521.39	1179
4521.65	1185
4521.91	1119
4522.17	1167
4522.43	1135
4522.68	1167
4522.94	1089
4523.2	1139
4523.46	1109
4523.72	1145
4523.97	1069
4524.23	1123
4524.49	1085
4524.75	1051
4525	1061
4525.26	1103
4525.52	1111
4525.78	1085
4526.03	1063
4526.29	1029
4526.55	1017
4526.81	1059
4527.07	1021
4527.32	1027
4527.58	1021
4527.84	1011
4528.1	1001
4528.35	1013
4528.61	1005
4528.87	973
4529.13	961
4529.38	947
4529.64	983
4529.9	1001
4530.15	947
4530.41	937
4530.67	949
4530.93	931
4531.18	921
4531.44	937
4531.7	907
4531.96	927
4532.21	947
4532.47	925
4532.73	893
4532.98	921
4533.24	907
4533.5	955
4533.76	907
4534.01	923
4534.27	941
